Model,MDO34,
Firmware Version,CF:91.1CT FV:v1.6.0,
,,
Waveform Type,ANALOG,ANALOG
Point Format,Y,Y
Horizontal Units,"s","s"
Horizontal Scale,4,4
Horizontal Delay,0,0
Sample Interval,0.004,0.004
Record Length,10000,10000
Gating,0.0% to 100.0%,0.0% to 100.0%
Probe Attenuation,1X,1X
Vertical Units,"V","V"
Vertical Offset,46.5,52
Vertical Scale,0.1,0.2
Vertical Position,1.86,2.08
,,
,,
,,
Label,"",""
TIME,CH1,CH2
-20,-0.006,0
-19.996,-0.01,0
-19.992,-0.01,0
-19.988,-0.01,0
-19.984,-0.01,0.008
-19.98,-0.006,0.008
-19.976,-0.01,0
-19.972,-0.01,0.008
-19.968,-0.006,0
-19.964,-0.006,0
-19.96,-0.006,-0.008
-19.956,-0.006,0
-19.952,-0.006,0.008
-19.948,-0.006,0
-19.944,-0.01,0
-19.94,-0.006,0
-19.936,-0.006,0
-19.932,-0.006,0.008
-19.928,-0.01,0
-19.924,-0.002,0
-19.92,-0.006,0
-19.916,-0.006,0
-19.912,-0.006,0
-19.908,-0.002,0
-19.904,-0.006,0.008
-19.9,-0.006,0
-19.896,-0.01,0
-19.892,-0.006,0.008
-19.888,-0.01,0
-19.884,-0.006,0
-19.88,-0.006,0
-19.876,-0.006,0.008
-19.872,-0.006,0.008
-19.868,-0.01,0
-19.864,-0.006,0.008
-19.86,-0.002,0
-19.856,-0.006,0
-19.852,-0.01,0.008
-19.848,-0.006,0.008
-19.844,-0.006,0
-19.84,-0.006,0
-19.836,-0.01,0
-19.832,-0.006,0
-19.828,-0.006,0
-19.824,-0.006,0.008
-19.82,-0.01,0.008
-19.816,-0.006,0
-19.812,-0.006,0
-19.808,-0.006,0
-19.804,-0.006,0
-19.8,-0.01,0
-19.796,-0.006,0
-19.792,-0.01,0
-19.788,-0.006,0.008
-19.784,-0.002,0
-19.78,-0.006,0.008
-19.776,-0.01,0.008
-19.772,-0.006,0.008
-19.768,-0.006,0.008
-19.764,-0.006,0.008
-19.76,-0.006,0
-19.756,-0.002,0
-19.752,-0.006,0
-19.748,-0.006,0
-19.744,-0.006,0.008
-19.74,-0.006,0
-19.736,-0.006,0
-19.732,-0.002,0
-19.728,-0.006,0
-19.724,-0.006,0.008
-19.72,-0.006,0
-19.716,-0.006,0
-19.712,-0.006,0
-19.708,-0.002,0
-19.704,-0.006,0
-19.7,-0.006,0.008
-19.696,-0.006,0
-19.692,-0.006,0
-19.688,-0.006,0.008
-19.684,-0.01,0
-19.68,-0.006,0
-19.676,-0.006,0
-19.672,-0.006,0
-19.668,-0.006,0
-19.664,-0.006,0
-19.66,-0.002,0
-19.656,-0.006,0
-19.652,-0.006,0
-19.648,-0.006,0
-19.644,-0.006,0
-19.64,-0.006,0
-19.636,-0.006,0
-19.632,-0.002,0
-19.628,-0.006,0
-19.624,-0.006,0
-19.62,-0.006,0
-19.616,-0.006,0
-19.612,-0.002,0.008
-19.608,-0.002,0
-19.604,-0.006,0
-19.6,-0.006,0
-19.596,-0.006,0
-19.592,-0.006,0
-19.588,-0.002,0
-19.584,-0.006,0.008
-19.58,-0.006,0
-19.576,-0.006,0.008
-19.572,-0.01,0.008
-19.568,-0.006,0
-19.564,-0.006,0
-19.56,-0.006,0.008
-19.556,-0.006,0
-19.552,-0.006,0
-19.548,-0.002,0
-19.544,-0.006,0
-19.54,-0.002,0
-19.536,-0.002,0
-19.532,-0.006,0
-19.528,-0.002,0.008
-19.524,-0.002,0
-19.52,-0.002,0
-19.516,-0.002,0
-19.512,-0.002,0.008
-19.508,-0.002,0
-19.504,-0.002,0
-19.5,-0.002,0
-19.496,-0.002,0
-19.492,-0.002,0
-19.488,-0.002,0.008
-19.484,-0.002,0
-19.48,-0.002,0
-19.476,0.002,0
-19.472,0.002,0
-19.468,0.002,0
-19.464,-0.006,0
-19.46,0.002,0
-19.456,-0.002,0
-19.452,0.002,0
-19.448,0.002,0
-19.444,0.002,-0.008
-19.44,0.002,0
-19.436,0.002,0
-19.432,0.002,0
-19.428,0.002,0
-19.424,-0.002,0
-19.42,0.002,0
-19.416,-0.002,0.008
-19.412,-0.002,0
-19.408,0.002,0
-19.404,-0.002,0
-19.4,0.002,0
-19.396,-0.002,0
-19.392,0.002,0
-19.388,0.002,0
-19.384,0.002,0
-19.38,0.002,0
-19.376,0.002,0
-19.372,0.002,0
-19.368,-0.002,0
-19.364,0.002,0
-19.36,0.002,0.008
-19.356,0.002,0
-19.352,-0.002,0.008
-19.348,0.002,0
-19.344,0.002,0.008
-19.34,0.006,0
-19.336,-0.002,0.008
-19.332,-0.002,0.008
-19.328,0.002,0
-19.324,0.002,0
-19.32,-0.002,0.008
-19.316,0.002,0
-19.312,-0.002,0
-19.308,0.002,0.008
-19.304,0.002,0
-19.3,-0.006,0
-19.296,0.002,0.008
-19.292,-0.002,0
-19.288,0.002,0
-19.284,0.002,0
-19.28,0.002,0
-19.276,-0.002,0
-19.272,-0.002,0
-19.268,0.002,0.008
-19.264,-0.002,0.008
-19.26,-0.002,0
-19.256,0.002,0
-19.252,-0.002,0
-19.248,-0.002,0.008
-19.244,-0.002,0
-19.24,-0.002,0
-19.236,0.002,0
-19.232,0.002,0
-19.228,-0.002,0.008
-19.224,-0.002,0.008
-19.22,-0.002,0.008
-19.216,-0.002,0
-19.212,-0.002,0
-19.208,-0.002,0
-19.204,-0.002,0
-19.2,0.002,0.008
-19.196,-0.002,0
-19.192,0.002,0.008
-19.188,-0.002,0.008
-19.184,-0.002,0
-19.18,-0.002,0.008
-19.176,-0.002,0
-19.172,-0.002,0.008
-19.168,-0.006,0
-19.164,-0.002,0
-19.16,-0.002,0
-19.156,-0.002,0
-19.152,0.002,0
-19.148,-0.002,0
-19.144,-0.002,0
-19.14,-0.002,0
-19.136,-0.002,0
-19.132,0.002,0
-19.128,-0.002,0
-19.124,-0.006,0
-19.12,-0.002,0
-19.116,-0.002,0
-19.112,-0.002,0
-19.108,0.002,0.008
-19.104,-0.002,0
-19.1,0.002,0
-19.096,-0.002,0.008
-19.092,0.002,0
-19.088,-0.002,0
-19.084,-0.002,0.008
-19.08,0.002,0.008
-19.076,0.002,0
-19.072,0.002,0.008
-19.068,0.002,0.008
-19.064,-0.002,0.008
-19.06,-0.006,0.008
-19.056,-0.002,0
-19.052,0.002,0.008
-19.048,-0.002,0.008
-19.044,0.002,0
-19.04,-0.002,0.008
-19.036,0.002,0.008
-19.032,-0.002,0.008
-19.028,0.002,0
-19.024,0.002,0
-19.02,0.002,0.008
-19.016,0.002,0
-19.012,-0.002,0
-19.008,0.002,0
-19.004,0.002,0.008
-19,-0.002,0.008
-18.996,-0.002,0.008
-18.992,0.002,0.008
-18.988,-0.002,0.016
-18.984,-0.002,0.008
-18.98,-0.002,0
-18.976,-0.002,0
-18.972,-0.002,0
-18.968,-0.002,0.008
-18.964,-0.002,0.008
-18.96,-0.002,0.008
-18.956,-0.002,0.008
-18.952,-0.002,0.008
-18.948,-0.002,0.008
-18.944,-0.002,0.008
-18.94,-0.002,0
-18.936,-0.006,0.008
-18.932,-0.002,0.008
-18.928,-0.006,0.008
-18.924,-0.002,0.008
-18.92,-0.002,0.008
-18.916,-0.002,0.008
-18.912,-0.006,0
-18.908,-0.006,0.008
-18.904,-0.006,0.008
-18.9,-0.006,0.008
-18.896,-0.006,0
-18.892,-0.006,0.008
-18.888,-0.006,0
-18.884,-0.002,0.008
-18.88,-0.006,0.008
-18.876,-0.006,0.008
-18.872,-0.006,0.008
-18.868,-0.002,0.008
-18.864,-0.01,0.008
-18.86,-0.006,0.008
-18.856,-0.006,0
-18.852,-0.006,0.008
-18.848,-0.006,0.008
-18.844,-0.006,0.016
-18.84,-0.006,0
-18.836,-0.006,0.008
-18.832,-0.006,0.008
-18.828,-0.006,0
-18.824,-0.01,0.008
-18.82,-0.006,0.008
-18.816,-0.006,0.008
-18.812,-0.006,0.008
-18.808,-0.006,0.008
-18.804,-0.006,0
-18.8,-0.006,0.008
-18.796,-0.01,0
-18.792,-0.01,0.008
-18.788,-0.01,0.008
-18.784,-0.006,0
-18.78,-0.006,0
-18.776,-0.01,0.008
-18.772,-0.006,0.016
-18.768,-0.01,0.008
-18.764,-0.006,0
-18.76,-0.006,0
-18.756,-0.006,0
-18.752,-0.006,0
-18.748,-0.01,0
-18.744,-0.006,0
-18.74,-0.01,0.008
-18.736,-0.006,0
-18.732,-0.006,0.008
-18.728,-0.006,0.008
-18.724,-0.006,0.008
-18.72,-0.006,0.008
-18.716,-0.006,0
-18.712,-0.006,0.008
-18.708,-0.006,0.008
-18.704,-0.01,0
-18.7,-0.006,0
-18.696,-0.006,0.008
-18.692,-0.006,0.008
-18.688,-0.006,0.008
-18.684,-0.006,0.008
-18.68,-0.006,0.008
-18.676,-0.006,0
-18.672,-0.006,0.008
-18.668,-0.006,0.008
-18.664,-0.006,0
-18.66,-0.006,0.008
-18.656,-0.002,0.008
-18.652,-0.002,0.008
-18.648,-0.006,0
-18.644,-0.006,0.008
-18.64,-0.006,0.008
-18.636,-0.006,0
-18.632,-0.006,0
-18.628,-0.002,0.008
-18.624,-0.006,0.008
-18.62,-0.006,0.008
-18.616,-0.006,0
-18.612,-0.006,0.008
-18.608,-0.006,0.008
-18.604,-0.006,0
-18.6,-0.006,0
-18.596,-0.006,0
-18.592,-0.006,0
-18.588,-0.006,0.008
-18.584,-0.002,0
-18.58,-0.002,0
-18.576,-0.006,0.008
-18.572,-0.002,0.008
-18.568,-0.006,0.008
-18.564,-0.006,0.008
-18.56,-0.002,0.008
-18.556,-0.006,0.008
-18.552,-0.006,0
-18.548,-0.002,0.008
-18.544,-0.002,0
-18.54,-0.006,0
-18.536,-0.006,0
-18.532,-0.002,0
-18.528,-0.006,0.008
-18.524,-0.006,0.008
-18.52,-0.002,0.008
-18.516,-0.002,0.008
-18.512,-0.006,0.008
-18.508,-0.002,0
-18.504,-0.002,0.008
-18.5,-0.002,0
-18.496,-0.006,0
-18.492,-0.006,0
-18.488,-0.002,0
-18.484,-0.002,0.008
-18.48,-0.002,0
-18.476,-0.002,0
-18.472,-0.006,0
-18.468,-0.006,0.008
-18.464,-0.002,0.008
-18.46,-0.006,0.008
-18.456,-0.002,0
-18.452,-0.006,0
-18.448,-0.006,0.008
-18.444,-0.006,0.008
-18.44,-0.006,0.008
-18.436,-0.006,0.008
-18.432,-0.006,0.008
-18.428,-0.006,0.008
-18.424,-0.006,0.008
-18.42,-0.006,0
-18.416,-0.002,0.008
-18.412,-0.002,0.008
-18.408,-0.002,0
-18.404,-0.006,0
-18.4,-0.006,0.008
-18.396,-0.002,0
-18.392,-0.002,0.008
-18.388,-0.006,0
-18.384,-0.006,0
-18.38,-0.006,0.008
-18.376,-0.002,0.008
-18.372,-0.006,0
-18.368,-0.006,0
-18.364,-0.006,0.008
-18.36,-0.01,0
-18.356,-0.006,0
-18.352,-0.006,0.016
-18.348,-0.006,0
-18.344,-0.002,0
-18.34,-0.006,0
-18.336,-0.006,0
-18.332,-0.006,0
-18.328,-0.002,0
-18.324,-0.006,0.008
-18.32,-0.002,-0.008
-18.316,-0.006,0.008
-18.312,-0.006,0.008
-18.308,-0.006,0
-18.304,-0.002,0
-18.3,-0.006,0.008
-18.296,-0.006,0
-18.292,-0.002,0
-18.288,-0.006,0.008
-18.284,-0.002,0.008
-18.28,-0.006,0
-18.276,-0.006,0.008
-18.272,-0.006,0.008
-18.268,-0.002,0
-18.264,-0.006,0.008
-18.26,-0.006,0
-18.256,-0.002,0
-18.252,-0.002,0
-18.248,-0.002,0.008
-18.244,-0.006,0
-18.24,-0.002,0
-18.236,-0.002,0
-18.232,-0.002,0.008
-18.228,-0.002,0
-18.224,-0.002,0.008
-18.22,-0.002,0.008
-18.216,-0.002,0.008
-18.212,-0.002,0
-18.208,-0.002,0
-18.204,-0.002,0.008
-18.2,-0.002,0.008
-18.196,-0.002,0.008
-18.192,-0.002,0
-18.188,-0.002,0.008
-18.184,-0.006,0.008
-18.18,-0.002,0
-18.176,-0.002,0.008
-18.172,-0.002,0
-18.168,-0.002,0.008
-18.164,-0.006,0
-18.16,-0.002,0.008
-18.156,0.002,0
-18.152,-0.002,0.008
-18.148,-0.006,0.008
-18.144,-0.006,0.008
-18.14,-0.006,0.008
-18.136,-0.006,0
-18.132,-0.006,0
-18.128,-0.006,0
-18.124,-0.006,0
-18.12,-0.006,0.008
-18.116,-0.006,0
-18.112,-0.006,0
-18.108,-0.006,0.008
-18.104,-0.006,0
-18.1,-0.01,0.008
-18.096,-0.006,0
-18.092,-0.006,0
-18.088,-0.006,0
-18.084,-0.006,0
-18.08,-0.002,0
-18.076,-0.01,0.008
-18.072,-0.006,0.008
-18.068,-0.006,0
-18.064,-0.006,0.008
-18.06,-0.006,0
-18.056,-0.006,0.008
-18.052,-0.006,0.008
-18.048,-0.006,0
-18.044,-0.002,0
-18.04,-0.006,0.008
-18.036,-0.006,0
-18.032,-0.002,0
-18.028,-0.002,0
-18.024,-0.002,0.008
-18.02,-0.002,0
-18.016,0.002,0
-18.012,-0.006,0
-18.008,-0.002,0.008
-18.004,-0.002,0
-18,-0.002,0
-17.996,-0.002,0.008
-17.992,0.002,0.008
-17.988,-0.002,0.008
-17.984,-0.002,0.008
-17.98,-0.002,0
-17.976,-0.002,0.008
-17.972,-0.002,0.008
-17.968,-0.002,0.008
-17.964,0.002,0.008
-17.96,-0.002,0.008
-17.956,-0.002,0.008
-17.952,0.002,0.008
-17.948,-0.002,0
-17.944,-0.002,0
-17.94,0.002,0.008
-17.936,0.002,0.008
-17.932,0.002,0.008
-17.928,-0.002,0.008
-17.924,-0.002,0.008
-17.92,0.002,0.008
-17.916,-0.002,0.008
-17.912,0.002,0
-17.908,-0.002,0.008
-17.904,-0.002,0
-17.9,0.002,0.008
-17.896,0.002,0.008
-17.892,-0.002,0.008
-17.888,0.002,0
-17.884,-0.002,0.008
-17.88,-0.002,0
-17.876,0.002,0.008
-17.872,0.002,0
-17.868,0.002,0.008
-17.864,-0.002,0.008
-17.86,0.002,0.008
-17.856,-0.002,0.008
-17.852,-0.002,0
-17.848,0.002,0
-17.844,-0.002,0.008
-17.84,0.002,0
-17.836,-0.002,0.008
-17.832,0.002,0.008
-17.828,-0.002,0.008
-17.824,-0.002,0
-17.82,-0.002,0
-17.816,-0.002,0.008
-17.812,-0.002,0
-17.808,-0.002,0.008
-17.804,0.002,0
-17.8,0.002,0
-17.796,-0.002,0.008
-17.792,0.002,0
-17.788,-0.002,0.008
-17.784,-0.002,0
-17.78,-0.002,0
-17.776,-0.002,0.008
-17.772,0.002,0.008
-17.768,0.002,0.008
-17.764,0.002,0
-17.76,0.002,0.008
-17.756,0.002,0
-17.752,0.002,0
-17.748,0.002,0
-17.744,0.002,0
-17.74,0.002,-0.008
-17.736,0.002,0
-17.732,0.002,0.008
-17.728,0.002,0
-17.724,0.002,0.008
-17.72,0.002,0.008
-17.716,0.006,0
-17.712,0.002,0.008
-17.708,0.006,0.008
-17.704,0.002,0
-17.7,0.002,0
-17.696,0.002,0
-17.692,0.002,0.008
-17.688,0.002,0.008
-17.684,0.002,0.008
-17.68,0.002,0.008
-17.676,0.002,0.008
-17.672,0.002,0
-17.668,0.002,0
-17.664,0.002,0
-17.66,0.002,0.008
-17.656,-0.002,0.008
-17.652,-0.002,0.008
-17.648,0.002,0.008
-17.644,-0.002,0
-17.64,-0.002,0
-17.636,0.002,0.008
-17.632,-0.002,0
-17.628,0.002,0.008
-17.624,0.002,0
-17.62,-0.002,0
-17.616,-0.002,0.008
-17.612,0.002,0.008
-17.608,0.002,0.008
-17.604,0.002,0.008
-17.6,0.002,0.008
-17.596,0.002,0
-17.592,0.002,0.008
-17.588,0.002,0.008
-17.584,0.002,0
-17.58,0.002,0
-17.576,0.002,0.008
-17.572,0.002,0
-17.568,-0.002,0.008
-17.564,0.002,0.008
-17.56,0.002,0
-17.556,-0.002,0.008
-17.552,0.002,0.008
-17.548,0.002,0.008
-17.544,0.002,0.008
-17.54,0.002,0.008
-17.536,0.002,0.008
-17.532,0.002,0.008
-17.528,0.002,0
-17.524,-0.002,0
-17.52,0.002,0
-17.516,0.002,0.008
-17.512,0.002,0.008
-17.508,0.002,0.008
-17.504,0.002,0.008
-17.5,0.002,0
-17.496,0.006,0.008
-17.492,0.002,0.008
-17.488,-0.002,0.008
-17.484,0.002,0.008
-17.48,0.002,0.008
-17.476,0.002,0.008
-17.472,0.002,0
-17.468,0.002,-0.008
-17.464,-0.002,0.008
-17.46,-0.002,0.008
-17.456,0.002,0.008
-17.452,0.002,0
-17.448,0.002,0
-17.444,0.002,0
-17.44,0.002,0
-17.436,0.002,0
-17.432,0.002,0
-17.428,0.002,0.008
-17.424,-0.002,0
-17.42,0.002,0.008
-17.416,0.002,0
-17.412,-0.002,0
-17.408,-0.002,0.008
-17.404,-0.002,0
-17.4,-0.002,0.008
-17.396,0.002,0.008
-17.392,-0.002,0
-17.388,-0.002,0
-17.384,-0.002,0
-17.38,-0.002,0
-17.376,-0.002,0.008
-17.372,-0.002,0.008
-17.368,-0.002,0
-17.364,0.002,0
-17.36,-0.002,0.008
-17.356,0.002,0
-17.352,-0.002,0.008
-17.348,0.002,-0.008
-17.344,-0.002,0.008
-17.34,0.002,0
-17.336,-0.002,0.008
-17.332,-0.002,0
-17.328,0.002,0
-17.324,-0.002,-0.008
-17.32,0.002,0.008
-17.316,0.002,0
-17.312,-0.002,0
-17.308,-0.002,0
-17.304,0.002,0.008
-17.3,0.002,0
-17.296,-0.002,0
-17.292,0.006,0
-17.288,0.002,0.008
-17.284,-0.002,0
-17.28,0.002,0.008
-17.276,0.002,0
-17.272,0.002,0
-17.268,0.002,0.008
-17.264,0.002,0
-17.26,-0.002,0
-17.256,-0.002,0
-17.252,-0.002,0.008
-17.248,0.002,0.008
-17.244,0.006,0.008
-17.24,0.002,0
-17.236,0.002,0.008
-17.232,0.002,0.008
-17.228,0.002,0
-17.224,0.002,0.008
-17.22,0.002,0
-17.216,0.002,0
-17.212,-0.002,0
-17.208,0.002,0
-17.204,0.002,0.008
-17.2,0.002,0
-17.196,0.002,0.008
-17.192,0.002,0
-17.188,-0.002,0
-17.184,0.002,0.008
-17.18,-0.002,0
-17.176,0.002,0
-17.172,0.002,0
-17.168,0.002,0.008
-17.164,-0.002,0.008
-17.16,0.002,0
-17.156,0.002,0.008
-17.152,0.002,0
-17.148,0.002,0
-17.144,0.002,0.008
-17.14,0.002,0
-17.136,0.002,0
-17.132,0.002,0
-17.128,0.002,0
-17.124,0.002,0
-17.12,0.002,0
-17.116,0.002,0
-17.112,-0.002,0
-17.108,0.002,0
-17.104,0.002,0
-17.1,0.002,0
-17.096,0.002,0
-17.092,-0.002,0
-17.088,0.002,0.008
-17.084,0.002,0
-17.08,0.002,0.008
-17.076,0.002,0
-17.072,0.002,0
-17.068,0.002,0.008
-17.064,0.002,0
-17.06,0.002,0
-17.056,0.002,0
-17.052,-0.002,0
-17.048,-0.002,0
-17.044,0.002,0
-17.04,0.002,-0.008
-17.036,0.002,0
-17.032,0.002,0
-17.028,-0.002,0
-17.024,0.002,0
-17.02,0.002,0
-17.016,0.002,-0.008
-17.012,-0.002,0
-17.008,-0.002,0
-17.004,-0.002,0
-17,0.002,0
-16.996,-0.002,0.008
-16.992,0.002,0
-16.988,-0.002,0
-16.984,0.002,0
-16.98,0.002,0
-16.976,0.002,0
-16.972,-0.002,0
-16.968,-0.002,0
-16.964,-0.002,0.008
-16.96,-0.002,0.008
-16.956,0.002,0
-16.952,-0.002,0
-16.948,-0.002,0
-16.944,-0.002,0
-16.94,-0.002,0
-16.936,0.002,0
-16.932,-0.002,0.008
-16.928,0.002,0
-16.924,-0.002,0
-16.92,-0.002,0
-16.916,0.002,0.008
-16.912,-0.002,0
-16.908,-0.002,0.008
-16.904,0.002,0
-16.9,-0.002,0
-16.896,-0.002,0.008
-16.892,-0.002,0
-16.888,-0.002,0.008
-16.884,-0.002,0
-16.88,-0.002,0
-16.876,0.002,0.008
-16.872,-0.002,0
-16.868,0.002,0.008
-16.864,-0.002,-0.008
-16.86,-0.002,0
-16.856,-0.002,0
-16.852,-0.002,0
-16.848,0.002,0.008
-16.844,-0.002,0
-16.84,0.002,0
-16.836,-0.002,0
-16.832,-0.002,0
-16.828,0.002,0.008
-16.824,-0.006,0
-16.82,0.002,0
-16.816,-0.002,0
-16.812,-0.002,0
-16.808,0.002,0.008
-16.804,0.002,0
-16.8,0.002,0
-16.796,0.002,0
-16.792,-0.002,0
-16.788,0.002,0.008
-16.784,0.002,0.008
-16.78,0.002,0.008
-16.776,-0.002,0
-16.772,0.002,0
-16.768,0.002,0
-16.764,-0.002,0
-16.76,0.002,0
-16.756,-0.002,0
-16.752,-0.002,0
-16.748,-0.002,0
-16.744,0.002,0.008
-16.74,0.002,0.008
-16.736,0.002,0
-16.732,-0.002,0
-16.728,0.002,0
-16.724,-0.002,0
-16.72,-0.002,0
-16.716,0.002,0
-16.712,0.002,0
-16.708,-0.002,0
-16.704,0.002,0
-16.7,-0.002,0
-16.696,-0.002,0
-16.692,-0.006,0
-16.688,-0.002,0
-16.684,-0.002,0
-16.68,0.002,0.008
-16.676,-0.002,0
-16.672,-0.002,0
-16.668,-0.002,0
-16.664,-0.002,0
-16.66,-0.002,0
-16.656,-0.002,0
-16.652,-0.006,0
-16.648,-0.002,0.008
-16.644,-0.006,0
-16.64,-0.006,0
-16.636,-0.002,0.008
-16.632,-0.002,0
-16.628,-0.006,0.008
-16.624,-0.002,0
-16.62,-0.006,0
-16.616,-0.002,0
-16.612,-0.006,0
-16.608,-0.002,0
-16.604,-0.006,0.008
-16.6,-0.002,0
-16.596,-0.006,0
-16.592,-0.006,0
-16.588,-0.006,0.008
-16.584,-0.006,0
-16.58,-0.002,-0.008
-16.576,-0.002,0.008
-16.572,-0.006,0
-16.568,-0.002,0
-16.564,-0.002,0
-16.56,-0.002,0
-16.556,-0.002,0.008
-16.552,-0.006,0
-16.548,-0.006,0
-16.544,-0.002,0
-16.54,-0.002,0
-16.536,-0.006,0
-16.532,-0.002,0
-16.528,-0.006,0
-16.524,-0.006,0
-16.52,-0.002,0.008
-16.516,-0.002,0
-16.512,0.002,0.008
-16.508,-0.002,0
-16.504,-0.002,0
-16.5,-0.006,0.008
-16.496,-0.002,0.008
-16.492,-0.002,0
-16.488,-0.002,0
-16.484,-0.002,0
-16.48,0.002,0
-16.476,-0.002,0
-16.472,-0.006,0
-16.468,0.002,0
-16.464,0.002,0
-16.46,-0.002,0
-16.456,-0.002,0
-16.452,-0.002,0
-16.448,-0.006,0
-16.444,-0.002,0
-16.44,-0.002,0
-16.436,-0.002,0
-16.432,-0.002,0
-16.428,0.002,0
-16.424,0.002,0
-16.42,-0.002,-0.008
-16.416,-0.002,0
-16.412,0.002,0.008
-16.408,0.002,0.008
-16.404,-0.002,0.008
-16.4,-0.002,0
-16.396,-0.002,0
-16.392,0.002,0
-16.388,-0.002,0.008
-16.384,0.002,0
-16.38,0.002,0.008
-16.376,0.002,0.008
-16.372,0.002,0.008
-16.368,0.002,0
-16.364,0.002,0.008
-16.36,-0.002,0
-16.356,0.002,0
-16.352,0.002,0
-16.348,-0.002,0
-16.344,-0.002,0
-16.34,0.002,0.008
-16.336,-0.002,0
-16.332,0.002,0
-16.328,0.002,0
-16.324,0.002,0
-16.32,-0.002,0
-16.316,0.002,0.008
-16.312,0.002,0
-16.308,-0.002,0
-16.304,0.002,0
-16.3,0.002,0.008
-16.296,0.002,0
-16.292,0.002,0.008
-16.288,-0.002,0
-16.284,-0.002,0
-16.28,0.002,0
-16.276,-0.002,0
-16.272,-0.002,0.008
-16.268,-0.002,0.008
-16.264,0.002,0
-16.26,0.002,0.008
-16.256,0.002,0
-16.252,-0.002,0
-16.248,0.002,0
-16.244,0.002,0
-16.24,0.002,0.008
-16.236,0.002,0
-16.232,0.002,0
-16.228,0.002,0
-16.224,0.002,0
-16.22,0.002,0.008
-16.216,0.002,0
-16.212,0.002,0
-16.208,-0.002,0.008
-16.204,0.002,0.008
-16.2,0.002,0.008
-16.196,0.002,0.008
-16.192,0.002,0.008
-16.188,0.002,0.008
-16.184,0.002,0
-16.18,0.002,0.008
-16.176,0.002,0
-16.172,0.002,0.008
-16.168,0.002,0
-16.164,-0.002,0
-16.16,-0.002,0.008
-16.156,0.002,0
-16.152,-0.002,0
-16.148,0.002,0.008
-16.144,-0.002,0.008
-16.14,0.006,0
-16.136,-0.002,0
-16.132,0.002,0
-16.128,0.002,0
-16.124,0.002,0
-16.12,0.002,0.008
-16.116,0.002,0
-16.112,0.002,0
-16.108,-0.002,0
-16.104,0.002,0
-16.1,0.002,0
-16.096,-0.002,0
-16.092,-0.006,0.008
-16.088,0.002,0
-16.084,0.002,0.008
-16.08,-0.002,0
-16.076,-0.002,0.008
-16.072,-0.002,0.008
-16.068,-0.002,0
-16.064,-0.002,0
-16.06,0.002,0.008
-16.056,0.002,0
-16.052,-0.002,0
-16.048,-0.002,0.008
-16.044,0.002,0.008
-16.04,0.002,0.008
-16.036,0.002,0
-16.032,0.002,0
-16.028,0.002,0
-16.024,-0.002,0
-16.02,0.002,0.008
-16.016,0.002,0
-16.012,0.002,0
-16.008,0.002,0
-16.004,0.002,0
-16,-0.002,0.008
-15.996,0.002,0
-15.992,0.002,0
-15.988,0.002,0
-15.984,-0.006,0
-15.98,-0.002,0.008
-15.976,-0.002,0
-15.972,0.002,0
-15.968,-0.002,0.008
-15.964,0.002,0
-15.96,-0.002,0
-15.956,0.002,0
-15.952,-0.002,0.008
-15.948,-0.002,0
-15.944,-0.002,0.008
-15.94,-0.002,0
-15.936,-0.002,0.008
-15.932,0.002,0.008
-15.928,-0.002,0
-15.924,-0.002,0.008
-15.92,-0.006,0
-15.916,-0.002,0
-15.912,-0.006,0.008
-15.908,-0.002,0.008
-15.904,-0.002,0
-15.9,-0.006,0
-15.896,-0.006,0
-15.892,-0.002,0
-15.888,-0.006,0.008
-15.884,-0.002,0.008
-15.88,-0.006,0
-15.876,-0.002,0
-15.872,-0.006,0
-15.868,-0.006,0
-15.864,-0.006,0
-15.86,-0.002,0
-15.856,-0.006,0.008
-15.852,-0.006,0
-15.848,-0.006,0
-15.844,-0.006,0
-15.84,-0.002,0
-15.836,-0.006,0.008
-15.832,-0.006,0.008
-15.828,-0.006,0.008
-15.824,-0.002,0
-15.82,-0.006,0.008
-15.816,-0.006,0.008
-15.812,-0.006,0.008
-15.808,-0.006,0
-15.804,-0.006,-0.008
-15.8,-0.006,0
-15.796,-0.006,0.008
-15.792,-0.006,0.008
-15.788,-0.002,0
-15.784,-0.006,0.008
-15.78,-0.006,0
-15.776,-0.006,0
-15.772,-0.002,0
-15.768,-0.002,0
-15.764,-0.006,0
-15.76,-0.006,0
-15.756,-0.006,0
-15.752,-0.006,0
-15.748,-0.002,0
-15.744,-0.002,0
-15.74,-0.006,0.008
-15.736,-0.006,0
-15.732,-0.006,0
-15.728,-0.002,0
-15.724,-0.002,0.008
-15.72,-0.002,0
-15.716,-0.002,0
-15.712,-0.002,-0.008
-15.708,-0.002,0.008
-15.704,-0.006,0
-15.7,-0.002,0
-15.696,-0.002,0
-15.692,0.002,0
-15.688,-0.006,0
-15.684,0.002,0
-15.68,-0.002,0
-15.676,0.002,0
-15.672,-0.002,0
-15.668,-0.002,0
-15.664,-0.002,0
-15.66,-0.002,0.008
-15.656,0.002,0
-15.652,-0.002,0
-15.648,-0.002,0
-15.644,-0.002,0
-15.64,-0.002,0
-15.636,0.002,0
-15.632,0.002,0
-15.628,-0.002,0
-15.624,-0.006,0
-15.62,-0.002,0
-15.616,-0.002,0
-15.612,-0.002,0
-15.608,-0.002,0
-15.604,-0.002,-0.008
-15.6,-0.006,0
-15.596,-0.006,0.008
-15.592,-0.006,0
-15.588,-0.002,0.008
-15.584,-0.006,0
-15.58,-0.006,0
-15.576,-0.006,0
-15.572,-0.002,0
-15.568,-0.002,0
-15.564,-0.002,0.008
-15.56,-0.006,0
-15.556,0.002,0
-15.552,-0.006,0
-15.548,-0.006,0
-15.544,-0.006,0
-15.54,-0.006,0.008
-15.536,-0.006,0
-15.532,-0.006,0
-15.528,-0.006,0.008
-15.524,-0.006,0
-15.52,-0.006,0.008
-15.516,-0.006,0
-15.512,-0.002,0
-15.508,-0.01,0
-15.504,-0.006,0.008
-15.5,-0.006,0
-15.496,-0.006,0
-15.492,-0.006,0.008
-15.488,-0.006,0
-15.484,-0.01,0
-15.48,-0.006,0
-15.476,-0.006,0
-15.472,-0.006,0
-15.468,-0.006,0
-15.464,-0.006,0
-15.46,-0.006,0
-15.456,-0.006,0
-15.452,-0.002,0.008
-15.448,-0.006,0.008
-15.444,-0.006,0.008
-15.44,-0.006,0
-15.436,-0.006,0.008
-15.432,-0.002,0
-15.428,-0.006,0
-15.424,-0.006,0
-15.42,-0.006,0
-15.416,-0.006,0
-15.412,-0.002,0.008
-15.408,-0.006,0
-15.404,-0.002,0
-15.4,-0.006,0
-15.396,-0.006,0
-15.392,0.002,0
-15.388,0.002,0
-15.384,-0.002,-0.008
-15.38,0.002,0
-15.376,-0.002,0
-15.372,-0.002,0
-15.368,-0.002,0
-15.364,-0.002,0
-15.36,-0.002,0
-15.356,-0.002,-0.008
-15.352,-0.002,0
-15.348,0.002,0.008
-15.344,-0.002,0.008
-15.34,-0.002,0
-15.336,-0.002,0
-15.332,-0.002,0
-15.328,0.002,0
-15.324,0.002,0
-15.32,-0.002,0
-15.316,-0.006,0.008
-15.312,-0.002,0
-15.308,0.002,0
-15.304,-0.002,0.008
-15.3,-0.002,0.008
-15.296,-0.002,0.008
-15.292,-0.002,0.008
-15.288,-0.002,-0.008
-15.284,-0.002,0
-15.28,-0.006,0
-15.276,-0.002,0
-15.272,-0.002,0
-15.268,-0.006,0
-15.264,-0.006,0
-15.26,-0.002,0
-15.256,-0.006,0
-15.252,-0.002,0
-15.248,-0.006,0
-15.244,-0.002,0
-15.24,-0.006,0
-15.236,-0.002,0
-15.232,-0.01,0
-15.228,-0.006,0
-15.224,-0.006,0
-15.22,-0.01,0
-15.216,-0.002,0
-15.212,-0.002,0
-15.208,-0.006,0
-15.204,-0.002,0
-15.2,-0.006,0
-15.196,-0.006,0
-15.192,-0.006,0.008
-15.188,-0.002,0.008
-15.184,-0.002,0
-15.18,-0.006,0
-15.176,-0.006,0
-15.172,-0.006,-0.008
-15.168,-0.006,0
-15.164,-0.006,0
-15.16,-0.006,0
-15.156,-0.002,0
-15.152,-0.006,0
-15.148,-0.006,0
-15.144,-0.002,0
-15.14,-0.002,0
-15.136,-0.006,0
-15.132,-0.006,0
-15.128,-0.006,0
-15.124,-0.006,-0.008
-15.12,-0.006,0
-15.116,-0.002,0
-15.112,-0.006,0.008
-15.108,-0.006,0
-15.104,-0.002,0
-15.1,-0.006,0
-15.096,-0.006,0.008
-15.092,-0.002,0
-15.088,-0.002,0
-15.084,-0.002,0
-15.08,-0.006,-0.008
-15.076,-0.006,0.008
-15.072,-0.006,0
-15.068,-0.006,0.008
-15.064,-0.002,0
-15.06,-0.002,0.008
-15.056,-0.002,0.008
-15.052,-0.002,0
-15.048,-0.002,0
-15.044,-0.006,0
-15.04,-0.006,0
-15.036,-0.006,0
-15.032,-0.006,0
-15.028,-0.006,0.008
-15.024,-0.006,0
-15.02,-0.006,0
-15.016,-0.002,0.008
-15.012,-0.002,0
-15.008,0.002,0.008
-15.004,-0.002,0
-15,-0.006,0
-14.996,-0.006,0.008
-14.992,-0.006,0
-14.988,-0.006,0
-14.984,-0.002,0
-14.98,-0.006,0
-14.976,-0.006,0
-14.972,-0.002,0
-14.968,-0.002,0
-14.964,-0.006,0
-14.96,-0.002,0
-14.956,-0.002,0
-14.952,-0.006,0
-14.948,-0.002,0.008
-14.944,-0.002,0.008
-14.94,-0.002,0
-14.936,-0.002,0.008
-14.932,-0.006,0
-14.928,-0.002,-0.008
-14.924,-0.002,0
-14.92,-0.002,0
-14.916,-0.002,0
-14.912,-0.002,0
-14.908,-0.002,0
-14.904,0.002,0
-14.9,-0.002,0
-14.896,-0.002,0
-14.892,-0.002,0
-14.888,-0.002,0
-14.884,-0.002,0
-14.88,-0.002,0
-14.876,-0.002,0
-14.872,-0.002,0
-14.868,0.002,0
-14.864,-0.002,0
-14.86,-0.002,0
-14.856,0.002,0
-14.852,-0.002,0
-14.848,-0.002,0
-14.844,-0.002,0.008
-14.84,-0.002,0
-14.836,-0.002,0
-14.832,-0.002,-0.008
-14.828,0.002,0
-14.824,0.002,0.008
-14.82,0.002,0
-14.816,-0.002,0
-14.812,0.002,0
-14.808,-0.002,0
-14.804,-0.002,0
-14.8,0.002,0.008
-14.796,0.002,0
-14.792,0.002,0.008
-14.788,-0.006,0.008
-14.784,0.002,0
-14.78,-0.002,0.008
-14.776,-0.006,0
-14.772,-0.002,0.008
-14.768,-0.002,0
-14.764,-0.006,0
-14.76,-0.006,0
-14.756,-0.006,0
-14.752,-0.006,0
-14.748,-0.006,0
-14.744,-0.006,0
-14.74,-0.01,-0.008
-14.736,-0.006,0
-14.732,-0.002,0
-14.728,-0.01,0
-14.724,-0.01,0
-14.72,-0.006,0
-14.716,-0.01,0
-14.712,-0.01,0
-14.708,-0.01,0
-14.704,-0.006,-0.008
-14.7,-0.01,0
-14.696,-0.006,0
-14.692,-0.01,0
-14.688,-0.014,0
-14.684,-0.006,0
-14.68,-0.006,0.008
-14.676,-0.01,0
-14.672,-0.01,0
-14.668,-0.01,0.008
-14.664,-0.01,0.008
-14.66,-0.014,0
-14.656,-0.01,0
-14.652,-0.01,0
-14.648,-0.01,0.008
-14.644,-0.006,0
-14.64,-0.014,0
-14.636,-0.006,0.008
-14.632,-0.006,0
-14.628,-0.006,0
-14.624,-0.006,0
-14.62,-0.006,0
-14.616,-0.006,0.008
-14.612,-0.002,0
-14.608,-0.002,0
-14.604,-0.006,0
-14.6,-0.006,0.008
-14.596,-0.006,0
-14.592,-0.006,0
-14.588,-0.006,0.008
-14.584,-0.006,0
-14.58,-0.006,0
-14.576,-0.006,-0.008
-14.572,-0.006,0
-14.568,-0.01,0
-14.564,-0.006,0
-14.56,-0.006,0
-14.556,-0.006,-0.008
-14.552,-0.002,0
-14.548,-0.006,0
-14.544,-0.006,0
-14.54,-0.002,0
-14.536,-0.006,0
-14.532,-0.006,0
-14.528,-0.002,0.008
-14.524,-0.006,-0.008
-14.52,-0.002,0
-14.516,-0.002,0.008
-14.512,-0.006,0
-14.508,-0.002,0.008
-14.504,-0.002,0
-14.5,-0.002,0
-14.496,-0.006,0
-14.492,-0.002,0
-14.488,-0.006,0
-14.484,-0.002,0
-14.48,-0.002,0.008
-14.476,-0.006,0
-14.472,-0.006,0
-14.468,-0.006,0.008
-14.464,-0.002,0
-14.46,-0.006,-0.008
-14.456,-0.006,0
-14.452,-0.006,-0.008
-14.448,-0.006,0.008
-14.444,-0.002,0
-14.44,-0.006,0
-14.436,-0.006,0
-14.432,-0.002,0.008
-14.428,-0.006,0.008
-14.424,-0.006,-0.008
-14.42,-0.006,0
-14.416,-0.002,0
-14.412,-0.006,0
-14.408,-0.006,0.008
-14.404,-0.002,0
-14.4,-0.002,0
-14.396,-0.006,0
-14.392,-0.006,0
-14.388,-0.006,0.008
-14.384,-0.006,0
-14.38,-0.002,0
-14.376,-0.002,0
-14.372,-0.002,0
-14.368,-0.002,0
-14.364,-0.002,0
-14.36,-0.006,0.008
-14.356,-0.002,0.008
-14.352,-0.002,0
-14.348,-0.002,0.008
-14.344,-0.002,0.008
-14.34,-0.002,0
-14.336,0.002,0.008
-14.332,-0.002,0
-14.328,0.002,0
-14.324,-0.002,0
-14.32,-0.002,0
-14.316,-0.002,0
-14.312,-0.002,0.008
-14.308,-0.002,0
-14.304,-0.002,0
-14.3,-0.002,0
-14.296,0.002,0
-14.292,-0.002,0.008
-14.288,-0.002,0
-14.284,-0.002,0.008
-14.28,-0.002,0.008
-14.276,-0.002,0
-14.272,0.002,0
-14.268,-0.002,0
-14.264,-0.002,0
-14.26,-0.002,0
-14.256,-0.006,0
-14.252,-0.002,0
-14.248,-0.002,0.008
-14.244,-0.006,0
-14.24,-0.002,0
-14.236,-0.002,0
-14.232,0.002,0.008
-14.228,-0.002,0.008
-14.224,-0.002,0
-14.22,-0.006,0.008
-14.216,-0.006,0
-14.212,-0.006,0
-14.208,-0.006,0
-14.204,-0.002,0
-14.2,-0.006,0
-14.196,-0.002,0.008
-14.192,-0.006,0.008
-14.188,-0.006,0
-14.184,-0.006,0.008
-14.18,-0.006,0
-14.176,-0.006,0
-14.172,-0.002,0.008
-14.168,-0.006,0.008
-14.164,-0.002,0
-14.16,-0.006,0.008
-14.156,-0.006,0
-14.152,-0.006,0
-14.148,-0.006,0.008
-14.144,-0.006,0.008
-14.14,-0.006,0
-14.136,-0.002,0.008
-14.132,-0.006,0.008
-14.128,-0.006,0.008
-14.124,-0.01,0.008
-14.12,-0.006,0.008
-14.116,-0.006,0.008
-14.112,-0.01,0.008
-14.108,-0.006,0
-14.104,-0.006,0.008
-14.1,-0.006,0.008
-14.096,-0.006,0.008
-14.092,-0.002,0.008
-14.088,-0.01,0
-14.084,-0.006,0.016
-14.08,-0.006,0.008
-14.076,-0.01,0.008
-14.072,-0.006,0
-14.068,-0.006,0.008
-14.064,-0.006,0.008
-14.06,-0.01,0
-14.056,-0.006,0.008
-14.052,-0.006,0.008
-14.048,-0.002,0.008
-14.044,-0.01,0
-14.04,-0.006,0.008
-14.036,-0.006,0
-14.032,-0.002,0.008
-14.028,-0.006,0.008
-14.024,-0.006,0.008
-14.02,-0.002,0.008
-14.016,-0.006,0
-14.012,-0.006,0
-14.008,-0.006,0.008
-14.004,-0.006,0.008
-14,-0.006,0.008
-13.996,-0.006,0.008
-13.992,-0.002,0.008
-13.988,-0.002,0.008
-13.984,-0.002,0.008
-13.98,-0.006,0
-13.976,-0.006,0.008
-13.972,-0.006,0
-13.968,-0.006,0
-13.964,-0.006,0.008
-13.96,-0.006,0.016
-13.956,-0.006,0.008
-13.952,-0.002,0.008
-13.948,-0.006,-0.008
-13.944,-0.006,0.008
-13.94,-0.006,0.008
-13.936,-0.006,0
-13.932,-0.002,0.008
-13.928,-0.006,0
-13.924,-0.006,0
-13.92,-0.006,0.008
-13.916,-0.006,0.008
-13.912,-0.006,0.008
-13.908,-0.006,0.008
-13.904,-0.002,0.016
-13.9,-0.006,0.008
-13.896,-0.002,0.008
-13.892,-0.006,0.008
-13.888,-0.01,0.008
-13.884,-0.006,0.008
-13.88,-0.006,0.008
-13.876,-0.006,0
-13.872,-0.002,0
-13.868,-0.002,0.008
-13.864,-0.006,0.008
-13.86,-0.006,0.008
-13.856,-0.006,0.008
-13.852,-0.006,0.016
-13.848,-0.006,0.008
-13.844,-0.006,0.008
-13.84,-0.006,0
-13.836,-0.006,0.008
-13.832,-0.006,0.008
-13.828,-0.006,0
-13.824,-0.006,0
-13.82,-0.006,0.008
-13.816,-0.002,0.008
-13.812,-0.006,0
-13.808,-0.002,0.008
-13.804,-0.002,0.008
-13.8,-0.006,0.008
-13.796,-0.002,0.008
-13.792,-0.006,0.008
-13.788,-0.002,0
-13.784,-0.002,0.008
-13.78,-0.002,0
-13.776,-0.006,0.008
-13.772,-0.002,0.008
-13.768,-0.006,0
-13.764,0.002,0
-13.76,-0.002,0
-13.756,-0.002,0.008
-13.752,-0.002,0.008
-13.748,-0.002,0.008
-13.744,-0.002,0.008
-13.74,-0.002,0
-13.736,-0.006,0.008
-13.732,-0.002,0.008
-13.728,-0.002,0
-13.724,-0.002,0
-13.72,-0.002,0.008
-13.716,-0.006,0
-13.712,-0.002,0.008
-13.708,-0.002,0.008
-13.704,-0.006,0
-13.7,-0.002,0.008
-13.696,-0.006,0.008
-13.692,-0.006,0.008
-13.688,-0.002,0
-13.684,-0.002,0.008
-13.68,-0.002,0.008
-13.676,-0.002,0
-13.672,-0.002,0.008
-13.668,-0.006,0.008
-13.664,-0.006,0.008
-13.66,-0.002,0
-13.656,-0.006,0
-13.652,-0.006,0.008
-13.648,-0.006,0
-13.644,-0.006,0
-13.64,-0.002,0
-13.636,-0.006,0
-13.632,-0.01,0.008
-13.628,-0.002,0.008
-13.624,-0.006,0.008
-13.62,-0.006,0
-13.616,-0.002,0.008
-13.612,-0.002,0
-13.608,-0.006,0.008
-13.604,-0.006,0.008
-13.6,-0.006,0.008
-13.596,-0.006,0.008
-13.592,-0.006,0.008
-13.588,-0.006,0.008
-13.584,-0.006,0.008
-13.58,-0.006,0.008
-13.576,-0.006,0.008
-13.572,-0.006,0.008
-13.568,-0.002,0
-13.564,-0.006,0.008
-13.56,-0.006,0.008
-13.556,-0.002,0
-13.552,-0.006,0.008
-13.548,-0.006,0.008
-13.544,-0.002,0.008
-13.54,-0.006,0
-13.536,-0.002,0
-13.532,-0.002,0.008
-13.528,-0.002,0
-13.524,-0.006,0.008
-13.52,-0.006,0.008
-13.516,-0.006,0
-13.512,-0.002,0.008
-13.508,-0.006,0.008
-13.504,-0.006,0.008
-13.5,-0.002,0.008
-13.496,-0.006,0
-13.492,-0.002,0.008
-13.488,-0.002,0.008
-13.484,-0.002,0.008
-13.48,-0.002,0
-13.476,-0.002,0
-13.472,-0.002,0
-13.468,-0.006,0
-13.464,0.002,0
-13.46,-0.006,0.008
-13.456,-0.002,0.008
-13.452,-0.006,0
-13.448,-0.002,0
-13.444,0.002,0.008
-13.44,0.002,0.008
-13.436,-0.002,0
-13.432,-0.006,0
-13.428,0.002,0.008
-13.424,0.002,0
-13.42,-0.002,0
-13.416,0.002,0.008
-13.412,-0.002,0
-13.408,-0.002,0
-13.404,-0.002,0.008
-13.4,0.002,0
-13.396,-0.002,0
-13.392,-0.002,0
-13.388,-0.002,0.008
-13.384,-0.002,0.008
-13.38,0.002,0.008
-13.376,-0.002,0
-13.372,0.002,0
-13.368,-0.002,0.008
-13.364,-0.002,0
-13.36,-0.002,0
-13.356,0.002,0
-13.352,-0.002,0
-13.348,-0.002,0
-13.344,-0.002,0
-13.34,0.002,0.008
-13.336,0.002,0.008
-13.332,-0.002,0
-13.328,-0.002,0
-13.324,0.002,0
-13.32,-0.002,0
-13.316,-0.002,0.008
-13.312,-0.002,0
-13.308,-0.002,0.008
-13.304,-0.002,0.008
-13.3,-0.006,0.008
-13.296,-0.006,0
-13.292,-0.002,0
-13.288,-0.002,0
-13.284,0.002,0
-13.28,-0.006,0
-13.276,-0.002,0
-13.272,-0.002,0
-13.268,-0.002,0.008
-13.264,-0.002,0
-13.26,-0.002,0
-13.256,-0.002,0.008
-13.252,-0.002,0
-13.248,-0.002,0.008
-13.244,-0.002,0.008
-13.24,-0.002,0
-13.236,-0.006,0.008
-13.232,-0.006,0.008
-13.228,-0.006,0.008
-13.224,-0.002,0
-13.22,-0.002,0.008
-13.216,-0.002,0
-13.212,0.002,0.008
-13.208,-0.002,0
-13.204,-0.002,0
-13.2,-0.006,0.008
-13.196,-0.002,0
-13.192,-0.002,0
-13.188,-0.002,0.008
-13.184,-0.002,0.008
-13.18,-0.006,0
-13.176,-0.006,0
-13.172,-0.002,0
-13.168,-0.002,0
-13.164,-0.002,0
-13.16,-0.002,0
-13.156,0.002,0
-13.152,-0.002,0
-13.148,-0.002,0
-13.144,0.002,0.008
-13.14,0.002,-0.008
-13.136,-0.002,0
-13.132,-0.002,0
-13.128,-0.002,0
-13.124,-0.002,0
-13.12,-0.006,0.008
-13.116,-0.002,-0.008
-13.112,-0.002,0
-13.108,0.002,0.016
-13.104,-0.002,0.008
-13.1,0.002,0.008
-13.096,-0.002,0
-13.092,-0.006,0.008
-13.088,-0.002,0
-13.084,0.002,0.008
-13.08,-0.002,0.008
-13.076,-0.006,0
-13.072,-0.002,0.008
-13.068,-0.002,0
-13.064,-0.002,0
-13.06,-0.002,0.008
-13.056,-0.006,0
-13.052,-0.002,0.008
-13.048,-0.002,0
-13.044,0.002,0
-13.04,-0.002,0.008
-13.036,0.002,0.008
-13.032,-0.002,0.008
-13.028,-0.002,0
-13.024,-0.006,0.008
-13.02,-0.002,0.008
-13.016,-0.002,0.008
-13.012,-0.002,0
-13.008,0.002,0
-13.004,-0.002,0
-13,-0.002,0.008
-12.996,-0.002,0
-12.992,-0.002,0
-12.988,-0.002,0
-12.984,0.002,0
-12.98,-0.006,0
-12.976,-0.002,0.008
-12.972,-0.002,0.008
-12.968,-0.002,0.008
-12.964,-0.006,0
-12.96,-0.002,0.016
-12.956,-0.002,0
-12.952,-0.002,0.008
-12.948,0.002,0.008
-12.944,-0.002,0
-12.94,-0.002,0
-12.936,-0.002,0.008
-12.932,-0.002,0
-12.928,-0.002,0.008
-12.924,-0.006,0.008
-12.92,-0.002,0.008
-12.916,-0.002,0
-12.912,-0.006,0
-12.908,-0.002,0.008
-12.904,-0.002,0
-12.9,-0.006,0.008
-12.896,-0.006,0
-12.892,-0.002,0.008
-12.888,-0.006,0.008
-12.884,-0.002,0
-12.88,-0.002,0
-12.876,-0.002,0.008
-12.872,-0.006,0.008
-12.868,-0.002,0.008
-12.864,-0.002,0.008
-12.86,-0.002,0
-12.856,-0.002,0
-12.852,-0.006,0
-12.848,-0.006,0.008
-12.844,-0.002,0
-12.84,-0.002,0.008
-12.836,-0.002,0
-12.832,-0.002,0
-12.828,-0.002,0.008
-12.824,-0.006,0
-12.82,-0.006,0
-12.816,-0.002,0
-12.812,-0.006,0.008
-12.808,-0.006,0
-12.804,-0.006,0
-12.8,-0.002,0
-12.796,-0.002,0
-12.792,-0.002,0.008
-12.788,-0.002,0
-12.784,-0.006,0
-12.78,-0.002,0.008
-12.776,-0.002,0
-12.772,-0.002,0
-12.768,-0.006,0
-12.764,-0.002,0
-12.76,-0.002,0.008
-12.756,-0.002,0.008
-12.752,-0.002,0
-12.748,-0.002,0.008
-12.744,-0.006,0.008
-12.74,-0.002,0
-12.736,-0.002,0.008
-12.732,-0.006,0.008
-12.728,-0.002,0
-12.724,-0.006,0
-12.72,-0.002,0.008
-12.716,-0.006,0
-12.712,-0.002,0
-12.708,-0.002,0.008
-12.704,-0.006,0
-12.7,-0.002,0
-12.696,-0.002,0
-12.692,-0.002,0
-12.688,-0.006,0
-12.684,-0.002,0
-12.68,-0.002,0
-12.676,-0.002,0
-12.672,-0.002,0
-12.668,-0.006,0
-12.664,-0.002,0.008
-12.66,-0.006,0
-12.656,-0.002,0
-12.652,-0.002,0.008
-12.648,-0.002,0
-12.644,-0.002,0
-12.64,-0.002,0
-12.636,-0.002,0
-12.632,-0.006,0.008
-12.628,-0.002,0
-12.624,-0.002,0
-12.62,-0.006,0
-12.616,-0.006,0
-12.612,-0.002,0
-12.608,-0.006,0.008
-12.604,-0.006,0
-12.6,-0.002,0.008
-12.596,0.002,0.008
-12.592,0.002,0
-12.588,0.002,0
-12.584,-0.002,0
-12.58,-0.002,0
-12.576,-0.002,0.008
-12.572,-0.002,0
-12.568,-0.002,0.008
-12.564,-0.006,0.008
-12.56,-0.006,0
-12.556,-0.002,0
-12.552,-0.002,0.008
-12.548,-0.002,0
-12.544,-0.006,0
-12.54,-0.006,0
-12.536,-0.002,0
-12.532,-0.002,0.008
-12.528,-0.006,0
-12.524,-0.002,0.008
-12.52,-0.006,0.008
-12.516,-0.002,0
-12.512,-0.006,0.008
-12.508,-0.006,0
-12.504,-0.006,0.008
-12.5,-0.006,0.008
-12.496,-0.006,0.008
-12.492,-0.006,0
-12.488,-0.006,0.008
-12.484,-0.006,0.008
-12.48,-0.002,0
-12.476,-0.006,0
-12.472,-0.006,0.008
-12.468,-0.006,0.008
-12.464,-0.006,0
-12.46,-0.006,0.008
-12.456,-0.006,0.008
-12.452,-0.002,0.016
-12.448,-0.006,0.008
-12.444,-0.006,0
-12.44,-0.006,0.008
-12.436,-0.006,0
-12.432,-0.006,0
-12.428,-0.002,0
-12.424,-0.006,0
-12.42,-0.002,0.008
-12.416,-0.002,0.008
-12.412,-0.002,0.008
-12.408,-0.002,0.008
-12.404,-0.006,0.008
-12.4,-0.006,0.008
-12.396,-0.002,0.008
-12.392,-0.002,0.008
-12.388,-0.006,0
-12.384,-0.002,0.008
-12.38,-0.002,0.008
-12.376,-0.006,0
-12.372,-0.002,0
-12.368,-0.006,0
-12.364,-0.006,0
-12.36,-0.006,0
-12.356,-0.002,0
-12.352,-0.006,0
-12.348,-0.002,0
-12.344,-0.002,0
-12.34,-0.002,0.008
-12.336,-0.006,0.008
-12.332,-0.002,0.008
-12.328,-0.002,0.008
-12.324,-0.002,0
-12.32,-0.002,0
-12.316,-0.006,0.008
-12.312,-0.002,0.008
-12.308,-0.002,0.008
-12.304,-0.006,0.008
-12.3,-0.006,0
-12.296,-0.002,0
-12.292,-0.002,0.008
-12.288,0.002,0.008
-12.284,-0.002,0
-12.28,-0.006,0.008
-12.276,-0.002,0
-12.272,-0.006,0
-12.268,-0.006,0
-12.264,-0.006,0
-12.26,-0.002,0
-12.256,-0.006,0.008
-12.252,-0.006,0
-12.248,0.002,0.008
-12.244,-0.006,0
-12.24,-0.006,0
-12.236,-0.006,0.008
-12.232,-0.002,0.008
-12.228,-0.006,0
-12.224,-0.002,0
-12.22,-0.002,0
-12.216,-0.006,0.008
-12.212,-0.006,0
-12.208,-0.006,0
-12.204,-0.006,0
-12.2,-0.002,0.008
-12.196,-0.006,0.008
-12.192,-0.006,0
-12.188,-0.002,0
-12.184,-0.002,0.008
-12.18,-0.002,0
-12.176,-0.006,0
-12.172,-0.006,0
-12.168,-0.006,0
-12.164,-0.002,0
-12.16,-0.006,0
-12.156,-0.006,0.008
-12.152,-0.006,0
-12.148,-0.006,0
-12.144,-0.006,0
-12.14,-0.006,0
-12.136,-0.006,0.008
-12.132,-0.006,0
-12.128,-0.006,0.008
-12.124,-0.006,0.008
-12.12,-0.002,0
-12.116,-0.006,0
-12.112,-0.002,0
-12.108,-0.006,0
-12.104,-0.006,0
-12.1,-0.002,0
-12.096,-0.006,0.008
-12.092,-0.006,0
-12.088,-0.002,0
-12.084,-0.002,0.008
-12.08,-0.006,0
-12.076,-0.01,0.008
-12.072,-0.002,0
-12.068,-0.002,0.008
-12.064,-0.002,-0.008
-12.06,-0.002,0
-12.056,-0.002,0
-12.052,-0.002,0
-12.048,-0.002,0
-12.044,-0.002,0
-12.04,-0.002,0
-12.036,-0.002,0
-12.032,-0.002,0
-12.028,-0.006,0
-12.024,-0.002,0
-12.02,-0.006,0
-12.016,-0.002,0.008
-12.012,-0.006,0
-12.008,-0.006,0.008
-12.004,-0.006,0
-12,-0.006,0
-11.996,-0.002,0.008
-11.992,-0.002,0.008
-11.988,-0.006,-0.008
-11.984,-0.006,0
-11.98,-0.002,0
-11.976,-0.002,0.008
-11.972,-0.002,0.008
-11.968,-0.006,0.008
-11.964,-0.006,0.008
-11.96,-0.006,0
-11.956,-0.002,0
-11.952,-0.006,0.008
-11.948,-0.002,0
-11.944,-0.01,0
-11.94,-0.002,0
-11.936,-0.006,0
-11.932,-0.002,0
-11.928,-0.002,0
-11.924,-0.006,0
-11.92,-0.006,0
-11.916,-0.006,0
-11.912,-0.002,0
-11.908,-0.006,0
-11.904,-0.006,0
-11.9,-0.006,0
-11.896,-0.006,0.008
-11.892,-0.002,0
-11.888,-0.002,0
-11.884,-0.006,0.008
-11.88,-0.006,0
-11.876,-0.006,0
-11.872,-0.002,0
-11.868,-0.006,0
-11.864,-0.006,0
-11.86,-0.002,0
-11.856,-0.002,0
-11.852,-0.006,0.008
-11.848,-0.002,0
-11.844,-0.006,0
-11.84,-0.002,0
-11.836,-0.002,0
-11.832,-0.002,-0.008
-11.828,-0.006,0
-11.824,-0.002,-0.008
-11.82,-0.006,0
-11.816,-0.006,0
-11.812,-0.002,0
-11.808,-0.002,0
-11.804,-0.002,0
-11.8,-0.002,0.008
-11.796,-0.002,0
-11.792,-0.002,0.008
-11.788,-0.002,0
-11.784,-0.002,-0.008
-11.78,-0.006,0
-11.776,-0.006,0
-11.772,-0.006,0
-11.768,-0.006,-0.008
-11.764,-0.006,-0.008
-11.76,-0.002,0
-11.756,-0.002,0
-11.752,-0.006,-0.008
-11.748,-0.002,0
-11.744,-0.006,0
-11.74,-0.006,0
-11.736,-0.006,-0.008
-11.732,-0.006,0
-11.728,-0.002,0
-11.724,-0.006,0
-11.72,-0.006,0
-11.716,-0.002,0
-11.712,-0.002,0.008
-11.708,-0.006,0
-11.704,-0.002,0
-11.7,-0.006,0.008
-11.696,-0.006,0
-11.692,-0.006,0
-11.688,-0.006,0
-11.684,-0.01,0
-11.68,-0.01,0.008
-11.676,-0.006,0
-11.672,-0.006,0
-11.668,-0.01,0
-11.664,-0.006,0.008
-11.66,-0.006,0
-11.656,-0.01,0.008
-11.652,-0.006,0
-11.648,-0.006,0
-11.644,-0.006,0.008
-11.64,-0.006,0.008
-11.636,-0.006,0.008
-11.632,-0.006,0
-11.628,-0.006,0.008
-11.624,-0.006,0
-11.62,-0.006,0
-11.616,-0.006,0
-11.612,-0.002,0.008
-11.608,-0.006,0
-11.604,-0.01,0
-11.6,-0.006,0
-11.596,-0.006,0
-11.592,-0.006,0
-11.588,-0.006,0
-11.584,-0.006,-0.008
-11.58,-0.006,0.008
-11.576,-0.006,0
-11.572,-0.006,0
-11.568,-0.006,0
-11.564,-0.006,0
-11.56,-0.006,0
-11.556,-0.002,0
-11.552,-0.006,-0.008
-11.548,-0.006,0
-11.544,-0.006,0
-11.54,-0.006,0
-11.536,-0.002,0
-11.532,-0.006,0
-11.528,-0.002,0.008
-11.524,-0.006,-0.008
-11.52,-0.006,0
-11.516,-0.006,0
-11.512,-0.006,0
-11.508,-0.01,0
-11.504,-0.006,-0.008
-11.5,-0.006,0.008
-11.496,-0.006,0
-11.492,-0.006,0
-11.488,-0.01,0.008
-11.484,-0.006,0
-11.48,-0.006,0
-11.476,-0.006,0
-11.472,-0.006,0
-11.468,-0.006,0
-11.464,-0.006,0
-11.46,-0.006,-0.008
-11.456,-0.002,0.008
-11.452,-0.002,0
-11.448,-0.006,0
-11.444,-0.006,0.008
-11.44,-0.006,0
-11.436,-0.006,0
-11.432,-0.002,0
-11.428,-0.006,0
-11.424,-0.006,0
-11.42,-0.006,0
-11.416,-0.006,0
-11.412,-0.006,0
-11.408,-0.006,0.008
-11.404,-0.006,0
-11.4,-0.006,0.008
-11.396,-0.006,0
-11.392,-0.006,0
-11.388,-0.006,0
-11.384,-0.006,0
-11.38,-0.006,0
-11.376,-0.006,0
-11.372,-0.006,0
-11.368,-0.006,0
-11.364,-0.006,0.008
-11.36,-0.006,0
-11.356,-0.006,0
-11.352,-0.006,0
-11.348,-0.006,-0.008
-11.344,-0.006,0
-11.34,-0.006,-0.008
-11.336,-0.006,0
-11.332,-0.006,0
-11.328,-0.006,0.008
-11.324,-0.006,0
-11.32,-0.006,0.008
-11.316,-0.006,0
-11.312,-0.002,0.008
-11.308,-0.006,0
-11.304,-0.002,0
-11.3,-0.006,0
-11.296,-0.006,0.008
-11.292,-0.006,0
-11.288,-0.006,0
-11.284,-0.002,0
-11.28,-0.002,0
-11.276,-0.002,0.008
-11.272,-0.002,0
-11.268,-0.006,0
-11.264,-0.006,0.008
-11.26,-0.006,0
-11.256,-0.006,0
-11.252,-0.006,0.008
-11.248,-0.002,0.008
-11.244,-0.002,0.008
-11.24,-0.006,0.008
-11.236,-0.002,0
-11.232,-0.002,0
-11.228,-0.006,0.008
-11.224,-0.006,0.008
-11.22,-0.006,0
-11.216,-0.002,0
-11.212,-0.002,0.008
-11.208,-0.002,0
-11.204,-0.002,0.008
-11.2,0.002,0
-11.196,-0.002,0
-11.192,-0.002,0.008
-11.188,-0.002,0
-11.184,-0.002,0.008
-11.18,-0.002,0
-11.176,-0.002,0
-11.172,-0.002,0
-11.168,-0.006,0
-11.164,0.002,0
-11.16,-0.002,0
-11.156,-0.006,0
-11.152,-0.002,0
-11.148,-0.002,0.008
-11.144,-0.002,0
-11.14,-0.002,0.008
-11.136,-0.002,0
-11.132,-0.002,0
-11.128,-0.006,0.008
-11.124,-0.002,0
-11.12,0.002,0
-11.116,-0.002,0
-11.112,-0.002,0
-11.108,-0.006,0
-11.104,-0.006,0
-11.1,-0.002,0.008
-11.096,-0.006,0.008
-11.092,-0.002,0
-11.088,-0.006,0.008
-11.084,-0.006,0.008
-11.08,-0.006,0
-11.076,-0.006,0
-11.072,-0.002,0.008
-11.068,-0.006,0.008
-11.064,-0.002,0
-11.06,-0.002,0.008
-11.056,-0.002,0.008
-11.052,-0.002,0
-11.048,-0.002,0.008
-11.044,-0.002,0
-11.04,-0.002,-0.008
-11.036,0.006,-0.008
-11.032,0.002,-0.008
-11.028,0.002,-0.008
-11.024,0.006,-0.016
-11.02,0.006,-0.016
-11.016,0.01,-0.016
-11.012,0.006,-0.016
-11.008,0.014,-0.016
-11.004,0.018,-0.024
-11,0.018,-0.016
-10.996,0.022,-0.032
-10.992,0.022,-0.024
-10.988,0.026,-0.032
-10.984,0.026,-0.04
-10.98,0.03,-0.032
-10.976,0.034,-0.048
-10.972,0.03,-0.048
-10.968,0.042,-0.056
-10.964,0.042,-0.056
-10.96,0.046,-0.072
-10.956,0.046,-0.072
-10.952,0.05,-0.08000001
-10.948,0.058,-0.08800001
-10.944,0.058,-0.096
-10.94,0.066,-0.112
-10.936,0.07,-0.12
-10.932,0.07,-0.128
-10.928,0.078,-0.136
-10.924,0.078,-0.144
-10.92,0.086,-0.152
-10.916,0.09,-0.168
-10.912,0.094,-0.168
-10.908,0.102,-0.176
-10.904,0.098,-0.184
-10.9,0.106,-0.2
-10.896,0.11,-0.2
-10.892,0.118,-0.216
-10.888,0.122,-0.224
-10.884,0.13,-0.232
-10.88,0.134,-0.232
-10.876,0.134,-0.248
-10.872,0.146,-0.256
-10.868,0.146,-0.256
-10.864,0.15,-0.272
-10.86,0.158,-0.272
-10.856,0.162,-0.288
-10.852,0.17,-0.296
-10.848,0.178,-0.304
-10.844,0.178,-0.312
-10.84,0.182,-0.32
-10.836,0.19,-0.328
-10.832,0.198,-0.336
-10.828,0.202,-0.352
-10.824,0.206,-0.36
-10.82,0.214,-0.36
-10.816,0.214,-0.376
-10.812,0.222,-0.384
-10.808,0.226,-0.392
-10.804,0.234,-0.392
-10.8,0.238,-0.408
-10.796,0.246,-0.416
-10.792,0.25,-0.424
-10.788,0.258,-0.432
-10.784,0.262,-0.44
-10.78,0.266,-0.448
-10.776,0.274,-0.456
-10.772,0.278,-0.472
-10.768,0.278,-0.472
-10.764,0.29,-0.488
-10.76,0.29,-0.496
-10.756,0.298,-0.512
-10.752,0.306,-0.52
-10.748,0.306,-0.528
-10.744,0.314,-0.544
-10.74,0.318,-0.552
-10.736,0.322,-0.552
-10.732,0.322,-0.56
-10.728,0.322,-0.56
-10.724,0.322,-0.568
-10.72,0.322,-0.576
-10.716,0.322,-0.576
-10.712,0.322,-0.5840001
-10.708,0.322,-0.592
-10.704,0.322,-0.6
-10.7,0.322,-0.6160001
-10.696,0.322,-0.6160001
-10.692,0.322,-0.6160001
-10.688,0.322,-0.624
-10.684,0.322,-0.64
-10.68,0.322,-0.648
-10.676,0.322,-0.648
-10.672,0.322,-0.656
-10.668,0.322,-0.664
-10.664,0.322,-0.664
-10.66,0.322,-0.6720001
-10.656,0.322,-0.68
-10.652,0.322,-0.688
-10.648,0.322,-0.68
-10.644,0.322,-0.696
-10.64,0.322,-0.7040001
-10.636,0.322,-0.7040001
-10.632,0.322,-0.72
-10.628,0.322,-0.72
-10.624,0.322,-0.728
-10.62,0.322,-0.728
-10.616,0.322,-0.728
-10.612,0.322,-0.7360001
-10.608,0.322,-0.7360001
-10.604,0.322,-0.752
-10.6,0.322,-0.752
-10.596,0.322,-0.752
-10.592,0.322,-0.744
-10.588,0.322,-0.752
-10.584,0.322,-0.7600001
-10.58,0.322,-0.7600001
-10.576,0.322,-0.7600001
-10.572,0.322,-0.768
-10.568,0.322,-0.7600001
-10.564,0.322,-0.768
-10.56,0.322,-0.7600001
-10.556,0.322,-0.768
-10.552,0.322,-0.768
-10.548,0.322,-0.768
-10.544,0.322,-0.768
-10.54,0.322,-0.776
-10.536,0.322,-0.776
-10.532,0.322,-0.768
-10.528,0.322,-0.7600001
-10.524,0.322,-0.776
-10.52,0.322,-0.7600001
-10.516,0.322,-0.7600001
-10.512,0.322,-0.768
-10.508,0.322,-0.7600001
-10.504,0.322,-0.768
-10.5,0.322,-0.7600001
-10.496,0.322,-0.752
-10.492,0.322,-0.752
-10.488,0.322,-0.744
-10.484,0.322,-0.744
-10.48,0.322,-0.7360001
-10.476,0.322,-0.7360001
-10.472,0.322,-0.7360001
-10.468,0.322,-0.728
-10.464,0.322,-0.72
-10.46,0.322,-0.712
-10.456,0.322,-0.712
-10.452,0.322,-0.7040001
-10.448,0.322,-0.7040001
-10.444,0.322,-0.696
-10.44,0.322,-0.688
-10.436,0.322,-0.68
-10.432,0.322,-0.68
-10.428,0.322,-0.6720001
-10.424,0.322,-0.664
-10.42,0.322,-0.664
-10.416,0.322,-0.656
-10.412,0.322,-0.648
-10.408,0.322,-0.64
-10.404,0.322,-0.632
-10.4,0.322,-0.6160001
-10.396,0.322,-0.6160001
-10.392,0.322,-0.608
-10.388,0.322,-0.608
-10.384,0.322,-0.592
-10.38,0.322,-0.5840001
-10.376,0.322,-0.576
-10.372,0.322,-0.576
-10.368,0.322,-0.568
-10.364,0.322,-0.568
-10.36,0.322,-0.56
-10.356,0.322,-0.552
-10.352,0.322,-0.536
-10.348,0.322,-0.528
-10.344,0.322,-0.52
-10.34,0.322,-0.52
-10.336,0.322,-0.512
-10.332,0.322,-0.504
-10.328,0.322,-0.496
-10.324,0.322,-0.48
-10.32,0.322,-0.472
-10.316,0.322,-0.464
-10.312,0.322,-0.456
-10.308,0.322,-0.448
-10.304,0.322,-0.432
-10.3,0.322,-0.424
-10.296,0.322,-0.424
-10.292,0.322,-0.416
-10.288,0.322,-0.408
-10.284,0.322,-0.408
-10.28,0.322,-0.392
-10.276,0.322,-0.384
-10.272,0.314,-0.376
-10.268,0.302,-0.36
-10.264,0.298,-0.352
-10.26,0.294,-0.344
-10.256,0.29,-0.336
-10.252,0.278,-0.32
-10.248,0.274,-0.32
-10.244,0.27,-0.304
-10.24,0.262,-0.296
-10.236,0.254,-0.28
-10.232,0.246,-0.272
-10.228,0.242,-0.264
-10.224,0.234,-0.256
-10.22,0.226,-0.248
-10.216,0.218,-0.224
-10.212,0.214,-0.224
-10.208,0.206,-0.208
-10.204,0.198,-0.2
-10.2,0.19,-0.192
-10.196,0.186,-0.184
-10.192,0.174,-0.176
-10.188,0.17,-0.152
-10.184,0.162,-0.144
-10.18,0.154,-0.152
-10.176,0.146,-0.128
-10.172,0.138,-0.128
-10.168,0.13,-0.112
-10.164,0.122,-0.112
-10.16,0.118,-0.096
-10.156,0.11,-0.096
-10.152,0.102,-0.08000001
-10.148,0.094,-0.08000001
-10.144,0.09,-0.064
-10.14,0.078,-0.064
-10.136,0.074,-0.056
-10.132,0.066,-0.048
-10.128,0.062,-0.04
-10.124,0.05,-0.04
-10.12,0.046,-0.032
-10.116,0.038,-0.016
-10.112,0.03,-0.008
-10.108,0.026,-0.008
-10.104,0.014,0
-10.1,0.01,0.008
-10.096,0.002,0.008
-10.092,-0.006,0.024
-10.088,-0.014,0.024
-10.084,-0.018,0.032
-10.08,-0.026,0.04
-10.076,-0.03,0.04
-10.072,-0.038,0.048
-10.068,-0.046,0.048
-10.064,-0.05,0.056
-10.06,-0.058,0.056
-10.056,-0.062,0.056
-10.052,-0.07,0.072
-10.048,-0.074,0.072
-10.044,-0.078,0.072
-10.04,-0.082,0.08000001
-10.036,-0.09,0.08000001
-10.032,-0.098,0.08800001
-10.028,-0.102,0.08800001
-10.024,-0.102,0.096
-10.02,-0.11,0.08800001
-10.016,-0.114,0.096
-10.012,-0.114,0.096
-10.008,-0.122,0.096
-10.004,-0.13,0.096
-10,-0.13,0.096
-9.996,-0.138,0.096
-9.992,-0.138,0.096
-9.988,-0.142,0.104
-9.984,-0.146,0.096
-9.98,-0.142,0.096
-9.976,-0.15,0.096
-9.972,-0.154,0.096
-9.968,-0.158,0.096
-9.964,-0.158,0.096
-9.96,-0.162,0.096
-9.956,-0.162,0.096
-9.952,-0.166,0.096
-9.948,-0.17,0.096
-9.944,-0.166,0.08800001
-9.94,-0.166,0.08800001
-9.936,-0.17,0.08000001
-9.932,-0.17,0.08000001
-9.928,-0.17,0.08000001
-9.924,-0.17,0.08000001
-9.92,-0.17,0.064
-9.916,-0.17,0.064
-9.912,-0.174,0.064
-9.908,-0.174,0.064
-9.904,-0.17,0.056
-9.9,-0.174,0.048
-9.896,-0.17,0.056
-9.892,-0.17,0.04
-9.888,-0.17,0.048
-9.884,-0.17,0.032
-9.88,-0.166,0.032
-9.876,-0.166,0.024
-9.872,-0.162,0.024
-9.868,-0.162,0.016
-9.864,-0.158,0.008
-9.86,-0.154,0
-9.856,-0.154,0
-9.852,-0.15,-0.016
-9.848,-0.146,-0.016
-9.844,-0.146,-0.024
-9.84,-0.142,-0.032
-9.836,-0.138,-0.04
-9.832,-0.134,-0.04
-9.828,-0.13,-0.048
-9.824,-0.122,-0.056
-9.82,-0.122,-0.064
-9.816,-0.114,-0.064
-9.812,-0.114,-0.072
-9.808,-0.106,-0.08800001
-9.804,-0.102,-0.08800001
-9.8,-0.098,-0.096
-9.796,-0.094,-0.104
-9.792,-0.086,-0.12
-9.788,-0.078,-0.128
-9.784,-0.078,-0.128
-9.78,-0.07,-0.136
-9.776,-0.066,-0.144
-9.772,-0.058,-0.16
-9.768,-0.05,-0.168
-9.764,-0.046,-0.168
-9.76,-0.038,-0.184
-9.756,-0.034,-0.192
-9.752,-0.026,-0.192
-9.748,-0.018,-0.216
-9.744,-0.014,-0.216
-9.74,-0.002,-0.224
-9.736,0.002,-0.232
-9.732,0.01,-0.24
-9.728,0.014,-0.248
-9.724,0.022,-0.264
-9.72,0.03,-0.272
-9.716,0.042,-0.264
-9.712,0.046,-0.28
-9.708,0.054,-0.288
-9.704,0.062,-0.296
-9.7,0.07,-0.296
-9.696,0.078,-0.304
-9.692,0.086,-0.312
-9.688,0.094,-0.32
-9.684,0.102,-0.328
-9.68,0.106,-0.336
-9.676,0.118,-0.336
-9.672,0.126,-0.344
-9.668,0.134,-0.352
-9.664,0.142,-0.36
-9.66,0.146,-0.368
-9.656,0.158,-0.376
-9.652,0.166,-0.376
-9.648,0.174,-0.384
-9.644,0.186,-0.392
-9.64,0.19,-0.4
-9.636,0.198,-0.408
-9.632,0.206,-0.408
-9.628,0.214,-0.416
-9.624,0.222,-0.424
-9.62,0.23,-0.432
-9.616,0.238,-0.432
-9.612,0.246,-0.44
-9.608,0.254,-0.448
-9.604,0.262,-0.448
-9.6,0.27,-0.456
-9.596,0.278,-0.464
-9.592,0.286,-0.472
-9.588,0.294,-0.48
-9.584,0.302,-0.488
-9.58,0.31,-0.496
-9.576,0.318,-0.496
-9.572,0.322,-0.504
-9.568,0.322,-0.504
-9.564,0.322,-0.512
-9.56,0.322,-0.52
-9.556,0.322,-0.52
-9.552,0.322,-0.528
-9.548,0.322,-0.528
-9.544,0.322,-0.536
-9.54,0.322,-0.536
-9.536,0.322,-0.536
-9.532,0.322,-0.544
-9.528,0.322,-0.552
-9.524,0.322,-0.552
-9.52,0.322,-0.552
-9.516,0.322,-0.56
-9.512,0.322,-0.56
-9.508,0.322,-0.56
-9.504,0.322,-0.568
-9.5,0.322,-0.568
-9.496,0.322,-0.568
-9.492,0.322,-0.576
-9.488,0.322,-0.568
-9.484,0.322,-0.576
-9.48,0.322,-0.576
-9.476,0.322,-0.576
-9.472,0.322,-0.576
-9.468,0.322,-0.576
-9.464,0.322,-0.5840001
-9.46,0.322,-0.576
-9.456,0.322,-0.576
-9.452,0.322,-0.576
-9.448,0.322,-0.576
-9.444,0.322,-0.5840001
-9.44,0.322,-0.5840001
-9.436,0.322,-0.576
-9.432,0.322,-0.576
-9.428,0.322,-0.576
-9.424,0.322,-0.568
-9.42,0.322,-0.576
-9.416,0.322,-0.568
-9.412,0.322,-0.568
-9.408,0.322,-0.568
-9.404,0.322,-0.56
-9.4,0.322,-0.56
-9.396,0.322,-0.552
-9.392,0.322,-0.552
-9.388,0.322,-0.552
-9.384,0.322,-0.544
-9.38,0.322,-0.544
-9.376,0.322,-0.544
-9.372,0.322,-0.536
-9.368,0.322,-0.536
-9.364,0.322,-0.528
-9.36,0.322,-0.528
-9.356,0.322,-0.528
-9.352,0.322,-0.52
-9.348,0.322,-0.52
-9.344,0.322,-0.512
-9.34,0.322,-0.512
-9.336,0.322,-0.504
-9.332,0.322,-0.496
-9.328,0.322,-0.496
-9.324,0.322,-0.488
-9.32,0.322,-0.488
-9.316,0.322,-0.48
-9.312,0.322,-0.48
-9.308,0.322,-0.48
-9.304,0.322,-0.472
-9.3,0.322,-0.464
-9.296,0.322,-0.464
-9.292,0.322,-0.456
-9.288,0.322,-0.456
-9.284,0.322,-0.448
-9.28,0.322,-0.432
-9.276,0.322,-0.432
-9.272,0.322,-0.432
-9.268,0.322,-0.424
-9.264,0.322,-0.416
-9.26,0.322,-0.408
-9.256,0.322,-0.408
-9.252,0.322,-0.4
-9.248,0.322,-0.4
-9.244,0.322,-0.392
-9.24,0.322,-0.384
-9.236,0.322,-0.376
-9.232,0.322,-0.368
-9.228,0.322,-0.368
-9.224,0.322,-0.36
-9.22,0.322,-0.352
-9.216,0.322,-0.344
-9.212,0.322,-0.328
-9.208,0.322,-0.32
-9.204,0.322,-0.32
-9.2,0.322,-0.312
-9.196,0.322,-0.296
-9.192,0.318,-0.296
-9.188,0.31,-0.288
-9.184,0.302,-0.272
-9.18,0.294,-0.272
-9.176,0.286,-0.256
-9.172,0.274,-0.248
-9.168,0.266,-0.24
-9.164,0.258,-0.232
-9.16,0.25,-0.232
-9.156,0.238,-0.216
-9.152,0.234,-0.216
-9.148,0.218,-0.208
-9.144,0.214,-0.192
-9.14,0.202,-0.176
-9.136,0.194,-0.176
-9.132,0.186,-0.168
-9.128,0.174,-0.16
-9.124,0.166,-0.16
-9.12,0.154,-0.152
-9.116,0.146,-0.136
-9.112,0.138,-0.136
-9.108,0.126,-0.12
-9.104,0.114,-0.12
-9.1,0.106,-0.112
-9.096,0.094,-0.112
-9.092,0.086,-0.096
-9.088,0.078,-0.08800001
-9.084,0.07,-0.08000001
-9.08,0.062,-0.072
-9.076,0.05,-0.064
-9.072,0.038,-0.056
-9.068,0.03,-0.048
-9.064,0.022,-0.048
-9.06,0.01,-0.04
-9.056,-0.002,-0.032
-9.052,-0.01,-0.024
-9.048,-0.018,-0.024
-9.044,-0.03,-0.016
-9.04,-0.042,-0.016
-9.036,-0.046,0
-9.032,-0.058,0
-9.028,-0.07,0.008
-9.024,-0.078,0.008
-9.02,-0.086,0.016
-9.016,-0.094,0.024
-9.012,-0.102,0.024
-9.008,-0.114,0.04
-9.004,-0.122,0.048
-9,-0.134,0.048
-8.996,-0.142,0.048
-8.992,-0.15,0.056
-8.988,-0.158,0.064
-8.984,-0.162,0.064
-8.98,-0.174,0.072
-8.976,-0.182,0.072
-8.972,-0.186,0.08000001
-8.968,-0.194,0.08000001
-8.964,-0.198,0.08800001
-8.96,-0.206,0.08800001
-8.956,-0.214,0.096
-8.952,-0.222,0.096
-8.948,-0.226,0.096
-8.944,-0.23,0.104
-8.94,-0.234,0.096
-8.936,-0.242,0.104
-8.932,-0.25,0.112
-8.928,-0.258,0.112
-8.924,-0.258,0.112
-8.92,-0.262,0.12
-8.916,-0.27,0.12
-8.912,-0.274,0.12
-8.908,-0.274,0.112
-8.904,-0.282,0.128
-8.9,-0.286,0.12
-8.896,-0.29,0.12
-8.892,-0.29,0.12
-8.888,-0.29,0.128
-8.884,-0.298,0.128
-8.88,-0.302,0.128
-8.876,-0.306,0.136
-8.872,-0.306,0.12
-8.868,-0.306,0.12
-8.864,-0.31,0.12
-8.86,-0.31,0.12
-8.856,-0.31,0.12
-8.852,-0.31,0.12
-8.848,-0.314,0.12
-8.844,-0.314,0.112
-8.84,-0.314,0.12
-8.836,-0.31,0.112
-8.832,-0.314,0.112
-8.828,-0.31,0.112
-8.824,-0.314,0.104
-8.82,-0.31,0.104
-8.816,-0.31,0.104
-8.812,-0.31,0.104
-8.808,-0.306,0.096
-8.804,-0.302,0.096
-8.8,-0.302,0.096
-8.796,-0.294,0.096
-8.792,-0.294,0.08800001
-8.788,-0.294,0.096
-8.784,-0.29,0.08800001
-8.78,-0.286,0.08800001
-8.776,-0.282,0.08000001
-8.772,-0.274,0.072
-8.768,-0.27,0.072
-8.764,-0.266,0.072
-8.76,-0.262,0.064
-8.756,-0.262,0.064
-8.752,-0.254,0.056
-8.748,-0.246,0.056
-8.744,-0.242,0.056
-8.74,-0.234,0.048
-8.736,-0.226,0.04
-8.732,-0.222,0.04
-8.728,-0.214,0.04
-8.724,-0.21,0.024
-8.72,-0.202,0.024
-8.716,-0.194,0.016
-8.712,-0.19,0.008
-8.708,-0.182,0.008
-8.704,-0.178,0
-8.7,-0.166,-0.008
-8.696,-0.162,-0.008
-8.692,-0.154,-0.008
-8.688,-0.142,-0.016
-8.684,-0.138,-0.016
-8.68,-0.126,-0.024
-8.676,-0.114,-0.04
-8.672,-0.11,-0.048
-8.668,-0.102,-0.056
-8.664,-0.094,-0.048
-8.66,-0.082,-0.048
-8.656,-0.074,-0.056
-8.652,-0.058,-0.072
-8.648,-0.058,-0.072
-8.644,-0.046,-0.072
-8.64,-0.034,-0.08000001
-8.636,-0.026,-0.08800001
-8.632,-0.014,-0.08800001
-8.628,-0.006,-0.104
-8.624,0.006,-0.104
-8.62,0.018,-0.112
-8.616,0.022,-0.12
-8.612,0.034,-0.128
-8.608,0.05,-0.136
-8.604,0.054,-0.144
-8.6,0.066,-0.152
-8.596,0.07,-0.152
-8.592,0.082,-0.16
-8.588,0.094,-0.16
-8.584,0.11,-0.176
-8.58,0.114,-0.176
-8.576,0.126,-0.184
-8.572,0.134,-0.192
-8.568,0.146,-0.2
-8.564,0.158,-0.2
-8.56,0.166,-0.208
-8.556,0.178,-0.216
-8.552,0.186,-0.232
-8.548,0.194,-0.232
-8.544,0.206,-0.24
-8.54,0.214,-0.24
-8.536,0.226,-0.256
-8.532,0.23,-0.256
-8.528,0.242,-0.264
-8.524,0.25,-0.272
-8.52,0.262,-0.28
-8.516,0.27,-0.28
-8.512,0.282,-0.296
-8.508,0.286,-0.296
-8.504,0.294,-0.296
-8.5,0.302,-0.304
-8.496,0.314,-0.312
-8.492,0.322,-0.312
-8.488,0.322,-0.328
-8.484,0.322,-0.328
-8.48,0.322,-0.336
-8.476,0.322,-0.344
-8.472,0.322,-0.344
-8.468,0.322,-0.352
-8.464,0.322,-0.36
-8.46,0.322,-0.36
-8.456,0.322,-0.368
-8.452,0.322,-0.368
-8.448,0.322,-0.376
-8.444,0.322,-0.376
-8.44,0.322,-0.384
-8.436,0.322,-0.384
-8.432,0.322,-0.392
-8.428,0.322,-0.392
-8.424,0.322,-0.392
-8.42,0.322,-0.4
-8.416,0.322,-0.408
-8.412,0.322,-0.408
-8.408,0.322,-0.416
-8.404,0.322,-0.416
-8.4,0.322,-0.416
-8.396,0.322,-0.416
-8.392,0.322,-0.416
-8.388,0.322,-0.424
-8.384,0.322,-0.424
-8.38,0.322,-0.424
-8.376,0.322,-0.432
-8.372,0.322,-0.424
-8.368,0.322,-0.432
-8.364,0.322,-0.432
-8.36,0.322,-0.432
-8.356,0.322,-0.44
-8.352,0.322,-0.432
-8.348,0.322,-0.44
-8.344,0.322,-0.44
-8.34,0.322,-0.44
-8.336,0.322,-0.448
-8.332,0.322,-0.448
-8.328,0.322,-0.44
-8.324,0.322,-0.44
-8.32,0.322,-0.44
-8.316,0.322,-0.456
-8.312,0.322,-0.448
-8.308,0.322,-0.456
-8.304,0.322,-0.456
-8.3,0.322,-0.456
-8.296,0.322,-0.456
-8.292,0.322,-0.464
-8.288,0.322,-0.448
-8.284,0.322,-0.464
-8.28,0.322,-0.456
-8.276,0.322,-0.456
-8.272,0.322,-0.464
-8.268,0.322,-0.456
-8.264,0.322,-0.456
-8.26,0.322,-0.456
-8.256,0.322,-0.448
-8.252,0.322,-0.448
-8.248,0.322,-0.448
-8.244,0.322,-0.448
-8.24,0.322,-0.448
-8.236,0.322,-0.448
-8.232,0.322,-0.44
-8.228,0.322,-0.448
-8.224,0.322,-0.44
-8.22,0.322,-0.44
-8.216,0.322,-0.432
-8.212,0.322,-0.432
-8.208,0.322,-0.432
-8.204,0.322,-0.424
-8.2,0.322,-0.424
-8.196,0.322,-0.424
-8.192,0.322,-0.416
-8.188,0.322,-0.416
-8.184,0.322,-0.408
-8.18,0.322,-0.408
-8.176,0.322,-0.4
-8.172,0.322,-0.392
-8.168,0.322,-0.392
-8.164,0.322,-0.376
-8.16,0.322,-0.376
-8.156,0.322,-0.376
-8.152,0.322,-0.368
-8.148,0.322,-0.368
-8.144,0.318,-0.36
-8.14,0.31,-0.344
-8.136,0.306,-0.344
-8.132,0.29,-0.336
-8.128,0.29,-0.336
-8.124,0.278,-0.32
-8.12,0.27,-0.312
-8.116,0.262,-0.312
-8.112,0.25,-0.312
-8.108,0.242,-0.304
-8.104,0.23,-0.296
-8.1,0.222,-0.28
-8.096,0.21,-0.28
-8.092,0.202,-0.272
-8.088,0.198,-0.272
-8.084,0.186,-0.256
-8.08,0.174,-0.256
-8.076,0.162,-0.248
-8.072,0.158,-0.24
-8.068,0.146,-0.232
-8.064,0.134,-0.232
-8.06,0.126,-0.232
-8.056,0.114,-0.216
-8.052,0.11,-0.208
-8.048,0.094,-0.2
-8.044,0.086,-0.192
-8.04,0.074,-0.192
-8.036,0.062,-0.176
-8.032,0.054,-0.176
-8.028,0.05,-0.168
-8.024,0.034,-0.16
-8.02,0.022,-0.152
-8.016,0.014,-0.144
-8.012,0.006,-0.144
-8.008,-0.006,-0.128
-8.004,-0.018,-0.12
-8,-0.026,-0.12
-7.996,-0.038,-0.112
-7.992,-0.046,-0.104
-7.988,-0.058,-0.096
-7.984,-0.066,-0.08800001
-7.98,-0.078,-0.072
-7.976,-0.086,-0.072
-7.972,-0.09,-0.072
-7.968,-0.102,-0.048
-7.964,-0.114,-0.048
-7.96,-0.13,-0.04
-7.956,-0.134,-0.032
-7.952,-0.15,-0.024
-7.948,-0.15,-0.024
-7.944,-0.158,-0.016
-7.94,-0.166,-0.008
-7.936,-0.178,0
-7.932,-0.186,0.016
-7.928,-0.19,0.016
-7.924,-0.194,0.016
-7.92,-0.202,0.024
-7.916,-0.214,0.032
-7.912,-0.218,0.04
-7.908,-0.226,0.048
-7.904,-0.234,0.048
-7.9,-0.242,0.056
-7.896,-0.246,0.064
-7.892,-0.25,0.064
-7.888,-0.258,0.08000001
-7.884,-0.266,0.08000001
-7.88,-0.27,0.08800001
-7.876,-0.274,0.08000001
-7.872,-0.282,0.096
-7.868,-0.286,0.096
-7.864,-0.29,0.096
-7.86,-0.298,0.104
-7.856,-0.302,0.112
-7.852,-0.306,0.112
-7.848,-0.31,0.12
-7.844,-0.31,0.128
-7.84,-0.318,0.128
-7.836,-0.318,0.136
-7.832,-0.322,0.144
-7.828,-0.322,0.144
-7.824,-0.33,0.152
-7.82,-0.33,0.144
-7.816,-0.334,0.16
-7.812,-0.33,0.16
-7.808,-0.338,0.168
-7.804,-0.334,0.168
-7.8,-0.338,0.16
-7.796,-0.338,0.176
-7.792,-0.338,0.168
-7.788,-0.338,0.176
-7.784,-0.342,0.184
-7.78,-0.342,0.184
-7.776,-0.338,0.184
-7.772,-0.334,0.192
-7.768,-0.338,0.192
-7.764,-0.334,0.184
-7.76,-0.334,0.192
-7.756,-0.334,0.2
-7.752,-0.326,0.2
-7.748,-0.326,0.2
-7.744,-0.326,0.208
-7.74,-0.322,0.2
-7.736,-0.322,0.192
-7.732,-0.318,0.2
-7.728,-0.314,0.2
-7.724,-0.31,0.2
-7.72,-0.306,0.192
-7.716,-0.302,0.192
-7.712,-0.302,0.208
-7.708,-0.294,0.2
-7.704,-0.29,0.2
-7.7,-0.286,0.192
-7.696,-0.278,0.192
-7.692,-0.274,0.192
-7.688,-0.27,0.184
-7.684,-0.258,0.192
-7.68,-0.258,0.184
-7.676,-0.25,0.184
-7.672,-0.246,0.184
-7.668,-0.238,0.184
-7.664,-0.23,0.176
-7.66,-0.222,0.176
-7.656,-0.214,0.176
-7.652,-0.206,0.176
-7.648,-0.198,0.176
-7.644,-0.198,0.168
-7.64,-0.19,0.16
-7.636,-0.186,0.168
-7.632,-0.178,0.168
-7.628,-0.17,0.168
-7.624,-0.162,0.16
-7.62,-0.15,0.152
-7.616,-0.146,0.16
-7.612,-0.138,0.16
-7.608,-0.126,0.152
-7.604,-0.118,0.144
-7.6,-0.11,0.144
-7.596,-0.102,0.136
-7.592,-0.094,0.128
-7.588,-0.086,0.128
-7.584,-0.078,0.128
-7.58,-0.066,0.12
-7.576,-0.058,0.112
-7.572,-0.05,0.104
-7.568,-0.038,0.096
-7.564,-0.03,0.096
-7.56,-0.022,0.08800001
-7.556,-0.01,0.08800001
-7.552,0.002,0.08000001
-7.548,0.006,0.072
-7.544,0.014,0.064
-7.54,0.026,0.056
-7.536,0.038,0.056
-7.532,0.046,0.048
-7.528,0.054,0.048
-7.524,0.066,0.04
-7.52,0.074,0.024
-7.516,0.078,0.016
-7.512,0.09,0.008
-7.508,0.098,0.008
-7.504,0.11,-0.008
-7.5,0.118,-0.008
-7.496,0.126,-0.016
-7.492,0.134,-0.032
-7.488,0.142,-0.032
-7.484,0.15,-0.04
-7.48,0.166,-0.056
-7.476,0.17,-0.056
-7.472,0.182,-0.072
-7.468,0.19,-0.072
-7.464,0.194,-0.08800001
-7.46,0.202,-0.08800001
-7.456,0.214,-0.104
-7.452,0.218,-0.104
-7.448,0.226,-0.12
-7.444,0.238,-0.12
-7.44,0.246,-0.12
-7.436,0.254,-0.144
-7.432,0.258,-0.136
-7.428,0.266,-0.144
-7.424,0.274,-0.16
-7.42,0.278,-0.168
-7.416,0.286,-0.176
-7.412,0.29,-0.176
-7.408,0.298,-0.192
-7.404,0.306,-0.2
-7.4,0.31,-0.208
-7.396,0.314,-0.208
-7.392,0.322,-0.224
-7.388,0.322,-0.224
-7.384,0.322,-0.24
-7.38,0.322,-0.24
-7.376,0.322,-0.24
-7.372,0.322,-0.256
-7.368,0.322,-0.256
-7.364,0.322,-0.272
-7.36,0.322,-0.272
-7.356,0.322,-0.28
-7.352,0.322,-0.296
-7.348,0.322,-0.296
-7.344,0.322,-0.304
-7.34,0.322,-0.312
-7.336,0.322,-0.312
-7.332,0.322,-0.32
-7.328,0.322,-0.328
-7.324,0.322,-0.328
-7.32,0.322,-0.344
-7.316,0.322,-0.344
-7.312,0.322,-0.352
-7.308,0.322,-0.36
-7.304,0.322,-0.368
-7.3,0.322,-0.368
-7.296,0.322,-0.376
-7.292,0.322,-0.376
-7.288,0.322,-0.384
-7.284,0.322,-0.392
-7.28,0.322,-0.4
-7.276,0.322,-0.408
-7.272,0.322,-0.408
-7.268,0.322,-0.416
-7.264,0.322,-0.416
-7.26,0.322,-0.416
-7.256,0.322,-0.424
-7.252,0.322,-0.432
-7.248,0.322,-0.432
-7.244,0.322,-0.432
-7.24,0.322,-0.44
-7.236,0.322,-0.448
-7.232,0.322,-0.448
-7.228,0.322,-0.44
-7.224,0.322,-0.448
-7.22,0.322,-0.448
-7.216,0.322,-0.456
-7.212,0.322,-0.464
-7.208,0.322,-0.464
-7.204,0.322,-0.464
-7.2,0.322,-0.464
-7.196,0.322,-0.472
-7.192,0.322,-0.472
-7.188,0.322,-0.472
-7.184,0.322,-0.48
-7.18,0.322,-0.472
-7.176,0.322,-0.472
-7.172,0.322,-0.472
-7.168,0.322,-0.48
-7.164,0.322,-0.472
-7.16,0.322,-0.472
-7.156,0.322,-0.472
-7.152,0.322,-0.472
-7.148,0.322,-0.472
-7.144,0.322,-0.464
-7.14,0.322,-0.472
-7.136,0.322,-0.464
-7.132,0.322,-0.464
-7.128,0.322,-0.456
-7.124,0.322,-0.448
-7.12,0.322,-0.456
-7.116,0.318,-0.448
-7.112,0.314,-0.448
-7.108,0.31,-0.44
-7.104,0.306,-0.44
-7.1,0.298,-0.44
-7.096,0.29,-0.432
-7.092,0.286,-0.432
-7.088,0.278,-0.424
-7.084,0.274,-0.424
-7.08,0.266,-0.424
-7.076,0.262,-0.416
-7.072,0.254,-0.416
-7.068,0.246,-0.408
-7.064,0.238,-0.408
-7.06,0.234,-0.4
-7.056,0.226,-0.392
-7.052,0.218,-0.392
-7.048,0.214,-0.384
-7.044,0.202,-0.376
-7.04,0.194,-0.368
-7.036,0.19,-0.368
-7.032,0.182,-0.36
-7.028,0.174,-0.36
-7.024,0.166,-0.344
-7.02,0.158,-0.344
-7.016,0.15,-0.336
-7.012,0.142,-0.328
-7.008,0.142,-0.32
-7.004,0.126,-0.312
-7,0.122,-0.296
-6.996,0.11,-0.296
-6.992,0.106,-0.296
-6.988,0.098,-0.28
-6.984,0.086,-0.28
-6.98,0.082,-0.264
-6.976,0.07,-0.256
-6.972,0.066,-0.248
-6.968,0.058,-0.24
-6.964,0.05,-0.224
-6.96,0.046,-0.224
-6.956,0.034,-0.216
-6.952,0.026,-0.2
-6.948,0.018,-0.2
-6.944,0.01,-0.192
-6.94,0.002,-0.184
-6.936,-0.006,-0.168
-6.932,-0.014,-0.16
-6.928,-0.018,-0.16
-6.924,-0.026,-0.144
-6.92,-0.034,-0.144
-6.916,-0.046,-0.136
-6.912,-0.05,-0.12
-6.908,-0.058,-0.112
-6.904,-0.066,-0.104
-6.9,-0.074,-0.08800001
-6.896,-0.082,-0.08800001
-6.892,-0.09,-0.072
-6.888,-0.098,-0.064
-6.884,-0.102,-0.056
-6.88,-0.11,-0.048
-6.876,-0.114,-0.04
-6.872,-0.122,-0.04
-6.868,-0.13,-0.016
-6.864,-0.134,-0.008
-6.86,-0.142,-0.008
-6.856,-0.146,0
-6.852,-0.154,0.016
-6.848,-0.162,0.024
-6.844,-0.17,0.032
-6.84,-0.174,0.048
-6.836,-0.178,0.056
-6.832,-0.182,0.056
-6.828,-0.186,0.064
-6.824,-0.19,0.072
-6.82,-0.194,0.08800001
-6.816,-0.198,0.096
-6.812,-0.206,0.096
-6.808,-0.206,0.104
-6.804,-0.214,0.104
-6.8,-0.214,0.12
-6.796,-0.222,0.12
-6.792,-0.222,0.136
-6.788,-0.226,0.144
-6.784,-0.23,0.144
-6.78,-0.234,0.152
-6.776,-0.238,0.16
-6.772,-0.242,0.168
-6.768,-0.242,0.176
-6.764,-0.246,0.184
-6.76,-0.25,0.184
-6.756,-0.246,0.192
-6.752,-0.254,0.2
-6.748,-0.254,0.208
-6.744,-0.258,0.208
-6.74,-0.258,0.216
-6.736,-0.262,0.224
-6.732,-0.258,0.232
-6.728,-0.258,0.24
-6.724,-0.266,0.248
-6.72,-0.262,0.248
-6.716,-0.266,0.256
-6.712,-0.262,0.256
-6.708,-0.266,0.264
-6.704,-0.262,0.272
-6.7,-0.262,0.272
-6.696,-0.266,0.272
-6.692,-0.262,0.288
-6.688,-0.262,0.288
-6.684,-0.262,0.288
-6.68,-0.262,0.288
-6.676,-0.262,0.296
-6.672,-0.258,0.296
-6.668,-0.258,0.304
-6.664,-0.258,0.304
-6.66,-0.254,0.304
-6.656,-0.25,0.312
-6.652,-0.25,0.304
-6.648,-0.246,0.304
-6.644,-0.242,0.312
-6.64,-0.238,0.312
-6.636,-0.242,0.312
-6.632,-0.234,0.312
-6.628,-0.23,0.312
-6.624,-0.226,0.312
-6.62,-0.222,0.312
-6.616,-0.218,0.32
-6.612,-0.218,0.312
-6.608,-0.21,0.32
-6.604,-0.214,0.32
-6.6,-0.202,0.32
-6.596,-0.202,0.328
-6.592,-0.198,0.32
-6.588,-0.194,0.328
-6.584,-0.186,0.32
-6.58,-0.186,0.32
-6.576,-0.186,0.312
-6.572,-0.178,0.32
-6.568,-0.174,0.312
-6.564,-0.17,0.312
-6.56,-0.162,0.304
-6.556,-0.154,0.296
-6.552,-0.154,0.296
-6.548,-0.146,0.296
-6.544,-0.142,0.288
-6.54,-0.138,0.28
-6.536,-0.13,0.28
-6.532,-0.126,0.272
-6.528,-0.114,0.272
-6.524,-0.114,0.264
-6.52,-0.106,0.256
-6.516,-0.098,0.256
-6.512,-0.094,0.248
-6.508,-0.09,0.24
-6.504,-0.086,0.232
-6.5,-0.074,0.224
-6.496,-0.07,0.224
-6.492,-0.062,0.216
-6.488,-0.058,0.208
-6.484,-0.054,0.2
-6.48,-0.046,0.192
-6.476,-0.042,0.184
-6.472,-0.03,0.176
-6.468,-0.022,0.176
-6.464,-0.014,0.16
-6.46,-0.014,0.16
-6.456,-0.006,0.152
-6.452,0.002,0.136
-6.448,0.01,0.136
-6.444,0.014,0.12
-6.44,0.022,0.12
-6.436,0.026,0.104
-6.432,0.034,0.096
-6.428,0.042,0.096
-6.424,0.05,0.08800001
-6.42,0.058,0.08000001
-6.416,0.058,0.064
-6.412,0.066,0.056
-6.408,0.07,0.048
-6.404,0.078,0.04
-6.4,0.086,0.032
-6.396,0.09,0.016
-6.392,0.098,0.016
-6.388,0.098,0
-6.384,0.11,-0.008
-6.38,0.114,-0.016
-6.376,0.122,-0.032
-6.372,0.13,-0.032
-6.368,0.13,-0.04
-6.364,0.138,-0.056
-6.36,0.142,-0.064
-6.356,0.15,-0.08000001
-6.352,0.158,-0.08000001
-6.348,0.158,-0.104
-6.344,0.166,-0.104
-6.34,0.17,-0.112
-6.336,0.178,-0.12
-6.332,0.182,-0.128
-6.328,0.186,-0.144
-6.324,0.194,-0.152
-6.32,0.198,-0.16
-6.316,0.198,-0.168
-6.312,0.21,-0.176
-6.308,0.21,-0.184
-6.304,0.218,-0.192
-6.3,0.218,-0.2
-6.296,0.222,-0.208
-6.292,0.234,-0.216
-6.288,0.23,-0.232
-6.284,0.234,-0.24
-6.28,0.242,-0.248
-6.276,0.246,-0.256
-6.272,0.25,-0.264
-6.268,0.258,-0.272
-6.264,0.258,-0.28
-6.26,0.262,-0.296
-6.256,0.262,-0.304
-6.252,0.266,-0.312
-6.248,0.274,-0.32
-6.244,0.27,-0.336
-6.24,0.274,-0.344
-6.236,0.278,-0.352
-6.232,0.282,-0.352
-6.228,0.286,-0.368
-6.224,0.286,-0.368
-6.22,0.286,-0.376
-6.216,0.29,-0.384
-6.212,0.294,-0.4
-6.208,0.294,-0.4
-6.204,0.298,-0.408
-6.2,0.298,-0.408
-6.196,0.298,-0.416
-6.192,0.302,-0.424
-6.188,0.302,-0.424
-6.184,0.302,-0.432
-6.18,0.306,-0.44
-6.176,0.306,-0.44
-6.172,0.306,-0.448
-6.168,0.31,-0.448
-6.164,0.31,-0.456
-6.16,0.31,-0.464
-6.156,0.306,-0.472
-6.152,0.31,-0.464
-6.148,0.31,-0.472
-6.144,0.31,-0.472
-6.14,0.31,-0.48
-6.136,0.31,-0.48
-6.132,0.306,-0.48
-6.128,0.31,-0.488
-6.124,0.31,-0.48
-6.12,0.306,-0.488
-6.116,0.306,-0.488
-6.112,0.306,-0.488
-6.108,0.302,-0.488
-6.104,0.306,-0.496
-6.1,0.306,-0.488
-6.096,0.302,-0.488
-6.092,0.306,-0.48
-6.088,0.302,-0.488
-6.084,0.298,-0.488
-6.08,0.298,-0.48
-6.076,0.294,-0.48
-6.072,0.294,-0.48
-6.068,0.294,-0.48
-6.064,0.29,-0.48
-6.06,0.286,-0.48
-6.056,0.286,-0.48
-6.052,0.282,-0.472
-6.048,0.282,-0.472
-6.044,0.274,-0.464
-6.04,0.274,-0.464
-6.036,0.274,-0.464
-6.032,0.274,-0.456
-6.028,0.266,-0.456
-6.024,0.266,-0.456
-6.02,0.262,-0.448
-6.016,0.254,-0.448
-6.012,0.254,-0.44
-6.008,0.25,-0.44
-6.004,0.246,-0.432
-6,0.242,-0.44
-5.996,0.238,-0.424
-5.992,0.238,-0.424
-5.988,0.234,-0.416
-5.984,0.222,-0.416
-5.98,0.226,-0.408
-5.976,0.218,-0.4
-5.972,0.214,-0.392
-5.968,0.214,-0.392
-5.964,0.21,-0.384
-5.96,0.202,-0.368
-5.956,0.198,-0.368
-5.952,0.194,-0.368
-5.948,0.194,-0.352
-5.944,0.186,-0.344
-5.94,0.182,-0.328
-5.936,0.178,-0.328
-5.932,0.17,-0.32
-5.928,0.166,-0.312
-5.924,0.162,-0.312
-5.92,0.154,-0.288
-5.916,0.154,-0.288
-5.912,0.146,-0.28
-5.908,0.142,-0.264
-5.904,0.134,-0.264
-5.9,0.13,-0.248
-5.896,0.122,-0.24
-5.892,0.118,-0.232
-5.888,0.114,-0.224
-5.884,0.11,-0.208
-5.88,0.102,-0.208
-5.876,0.094,-0.192
-5.872,0.094,-0.184
-5.868,0.086,-0.176
-5.864,0.082,-0.168
-5.86,0.078,-0.16
-5.856,0.074,-0.152
-5.852,0.07,-0.144
-5.848,0.062,-0.136
-5.844,0.058,-0.12
-5.84,0.05,-0.112
-5.836,0.046,-0.104
-5.832,0.042,-0.08800001
-5.828,0.034,-0.08000001
-5.824,0.03,-0.08000001
-5.82,0.022,-0.064
-5.816,0.014,-0.056
-5.812,0.01,-0.048
-5.808,0.006,-0.032
-5.804,0.002,-0.032
-5.8,-0.006,-0.016
-5.796,-0.01,-0.008
-5.792,-0.014,0.008
-5.788,-0.022,0.008
-5.784,-0.03,0.024
-5.78,-0.03,0.032
-5.776,-0.038,0.04
-5.772,-0.042,0.056
-5.768,-0.05,0.064
-5.764,-0.054,0.072
-5.76,-0.058,0.08800001
-5.756,-0.062,0.096
-5.752,-0.07,0.104
-5.748,-0.074,0.112
-5.744,-0.082,0.112
-5.74,-0.082,0.12
-5.736,-0.09,0.136
-5.732,-0.094,0.144
-5.728,-0.098,0.152
-5.724,-0.106,0.16
-5.72,-0.11,0.168
-5.716,-0.114,0.176
-5.712,-0.122,0.192
-5.708,-0.122,0.2
-5.704,-0.126,0.208
-5.7,-0.13,0.216
-5.696,-0.138,0.216
-5.692,-0.138,0.232
-5.688,-0.15,0.232
-5.684,-0.15,0.24
-5.68,-0.154,0.248
-5.676,-0.162,0.256
-5.672,-0.162,0.264
-5.668,-0.166,0.264
-5.664,-0.17,0.272
-5.66,-0.17,0.272
-5.656,-0.174,0.28
-5.652,-0.182,0.288
-5.648,-0.182,0.288
-5.644,-0.186,0.304
-5.64,-0.186,0.304
-5.636,-0.19,0.312
-5.632,-0.19,0.312
-5.628,-0.19,0.328
-5.624,-0.194,0.328
-5.62,-0.198,0.328
-5.616,-0.198,0.328
-5.612,-0.202,0.336
-5.608,-0.202,0.336
-5.604,-0.206,0.344
-5.6,-0.21,0.352
-5.596,-0.206,0.352
-5.592,-0.21,0.352
-5.588,-0.21,0.368
-5.584,-0.214,0.36
-5.58,-0.214,0.368
-5.576,-0.214,0.376
-5.572,-0.218,0.376
-5.568,-0.218,0.376
-5.564,-0.218,0.368
-5.56,-0.218,0.376
-5.556,-0.218,0.376
-5.552,-0.222,0.376
-5.548,-0.222,0.376
-5.544,-0.222,0.384
-5.54,-0.222,0.376
-5.536,-0.218,0.376
-5.532,-0.222,0.376
-5.528,-0.218,0.376
-5.524,-0.214,0.368
-5.52,-0.222,0.368
-5.516,-0.218,0.368
-5.512,-0.218,0.36
-5.508,-0.214,0.36
-5.504,-0.214,0.36
-5.5,-0.214,0.352
-5.496,-0.214,0.352
-5.492,-0.214,0.352
-5.488,-0.21,0.352
-5.484,-0.21,0.344
-5.48,-0.202,0.336
-5.476,-0.206,0.336
-5.472,-0.202,0.328
-5.468,-0.202,0.328
-5.464,-0.198,0.32
-5.46,-0.198,0.32
-5.456,-0.194,0.304
-5.452,-0.19,0.304
-5.448,-0.19,0.296
-5.444,-0.186,0.288
-5.44,-0.186,0.288
-5.436,-0.186,0.28
-5.432,-0.178,0.272
-5.428,-0.178,0.272
-5.424,-0.174,0.256
-5.42,-0.17,0.256
-5.416,-0.166,0.24
-5.412,-0.162,0.24
-5.408,-0.158,0.232
-5.404,-0.154,0.224
-5.4,-0.154,0.216
-5.396,-0.146,0.216
-5.392,-0.142,0.2
-5.388,-0.138,0.2
-5.384,-0.134,0.184
-5.38,-0.13,0.184
-5.376,-0.122,0.168
-5.372,-0.122,0.16
-5.368,-0.122,0.144
-5.364,-0.114,0.144
-5.36,-0.106,0.128
-5.356,-0.102,0.12
-5.352,-0.098,0.112
-5.348,-0.094,0.104
-5.344,-0.086,0.096
-5.34,-0.082,0.096
-5.336,-0.078,0.08800001
-5.332,-0.07,0.072
-5.328,-0.062,0.072
-5.324,-0.058,0.056
-5.32,-0.058,0.048
-5.316,-0.05,0.04
-5.312,-0.046,0.032
-5.308,-0.038,0.016
-5.304,-0.034,0.008
-5.3,-0.022,-0.008
-5.296,-0.018,-0.008
-5.292,-0.018,-0.024
-5.288,-0.01,-0.024
-5.284,-0.006,-0.032
-5.28,0.002,-0.048
-5.276,0.01,-0.056
-5.272,0.01,-0.072
-5.268,0.022,-0.08000001
-5.264,0.026,-0.08800001
-5.26,0.03,-0.104
-5.256,0.038,-0.104
-5.252,0.042,-0.12
-5.248,0.05,-0.128
-5.244,0.054,-0.144
-5.24,0.058,-0.152
-5.236,0.066,-0.16
-5.232,0.07,-0.168
-5.228,0.078,-0.168
-5.224,0.082,-0.184
-5.22,0.086,-0.2
-5.216,0.09,-0.2
-5.212,0.098,-0.224
-5.208,0.106,-0.232
-5.204,0.11,-0.24
-5.2,0.114,-0.248
-5.196,0.122,-0.256
-5.192,0.13,-0.264
-5.188,0.13,-0.28
-5.184,0.138,-0.28
-5.18,0.142,-0.288
-5.176,0.15,-0.304
-5.172,0.158,-0.312
-5.168,0.162,-0.312
-5.164,0.166,-0.32
-5.16,0.17,-0.336
-5.156,0.174,-0.344
-5.152,0.182,-0.352
-5.148,0.19,-0.352
-5.144,0.19,-0.36
-5.14,0.194,-0.368
-5.136,0.202,-0.376
-5.132,0.202,-0.376
-5.128,0.21,-0.392
-5.124,0.218,-0.384
-5.12,0.222,-0.392
-5.116,0.226,-0.4
-5.112,0.23,-0.408
-5.108,0.238,-0.408
-5.104,0.238,-0.416
-5.1,0.242,-0.416
-5.096,0.246,-0.424
-5.092,0.25,-0.424
-5.088,0.254,-0.424
-5.084,0.258,-0.424
-5.08,0.258,-0.432
-5.076,0.262,-0.432
-5.072,0.27,-0.432
-5.068,0.27,-0.432
-5.064,0.27,-0.44
-5.06,0.278,-0.44
-5.056,0.278,-0.44
-5.052,0.278,-0.448
-5.048,0.282,-0.44
-5.044,0.286,-0.448
-5.04,0.286,-0.44
-5.036,0.29,-0.448
-5.032,0.294,-0.448
-5.028,0.298,-0.448
-5.024,0.298,-0.448
-5.02,0.302,-0.448
-5.016,0.302,-0.448
-5.012,0.306,-0.448
-5.008,0.302,-0.448
-5.004,0.31,-0.448
-5,0.306,-0.448
-4.996,0.31,-0.44
-4.992,0.31,-0.448
-4.988,0.314,-0.44
-4.984,0.314,-0.448
-4.98,0.314,-0.432
-4.976,0.31,-0.44
-4.972,0.31,-0.432
-4.968,0.314,-0.432
-4.964,0.314,-0.424
-4.96,0.314,-0.432
-4.956,0.314,-0.424
-4.952,0.314,-0.424
-4.948,0.31,-0.424
-4.944,0.31,-0.416
-4.94,0.31,-0.416
-4.936,0.31,-0.408
-4.932,0.31,-0.408
-4.928,0.31,-0.4
-4.924,0.306,-0.4
-4.92,0.302,-0.392
-4.916,0.302,-0.384
-4.912,0.302,-0.384
-4.908,0.298,-0.376
-4.904,0.298,-0.376
-4.9,0.294,-0.368
-4.896,0.294,-0.36
-4.892,0.29,-0.352
-4.888,0.29,-0.352
-4.884,0.286,-0.336
-4.88,0.282,-0.336
-4.876,0.282,-0.32
-4.872,0.282,-0.312
-4.868,0.278,-0.312
-4.864,0.274,-0.296
-4.86,0.266,-0.288
-4.856,0.262,-0.288
-4.852,0.262,-0.288
-4.848,0.258,-0.28
-4.844,0.258,-0.256
-4.84,0.25,-0.256
-4.836,0.246,-0.256
-4.832,0.246,-0.232
-4.828,0.242,-0.232
-4.824,0.234,-0.216
-4.82,0.23,-0.216
-4.816,0.226,-0.208
-4.812,0.222,-0.2
-4.808,0.218,-0.184
-4.804,0.21,-0.168
-4.8,0.206,-0.168
-4.796,0.202,-0.16
-4.792,0.194,-0.16
-4.788,0.19,-0.144
-4.784,0.186,-0.136
-4.78,0.182,-0.136
-4.776,0.174,-0.12
-4.772,0.17,-0.112
-4.768,0.166,-0.112
-4.764,0.154,-0.096
-4.76,0.146,-0.08000001
-4.756,0.146,-0.08000001
-4.752,0.142,-0.072
-4.748,0.134,-0.064
-4.744,0.126,-0.056
-4.74,0.122,-0.04
-4.736,0.114,-0.032
-4.732,0.106,-0.024
-4.728,0.098,-0.016
-4.724,0.094,-0.008
-4.72,0.086,0.008
-4.716,0.078,0.016
-4.712,0.07,0.024
-4.708,0.07,0.032
-4.704,0.062,0.04
-4.7,0.054,0.048
-4.696,0.046,0.056
-4.692,0.038,0.064
-4.688,0.03,0.08000001
-4.684,0.026,0.08800001
-4.68,0.022,0.096
-4.676,0.01,0.096
-4.672,0.002,0.112
-4.668,-0.002,0.12
-4.664,-0.01,0.12
-4.66,-0.018,0.128
-4.656,-0.026,0.144
-4.652,-0.034,0.144
-4.648,-0.042,0.152
-4.644,-0.05,0.168
-4.64,-0.054,0.168
-4.636,-0.062,0.176
-4.632,-0.07,0.184
-4.628,-0.074,0.184
-4.624,-0.082,0.192
-4.62,-0.094,0.2
-4.616,-0.098,0.208
-4.612,-0.106,0.216
-4.608,-0.114,0.216
-4.604,-0.122,0.224
-4.6,-0.126,0.224
-4.596,-0.134,0.232
-4.592,-0.138,0.248
-4.588,-0.15,0.248
-4.584,-0.154,0.256
-4.58,-0.162,0.256
-4.576,-0.166,0.272
-4.572,-0.174,0.28
-4.568,-0.182,0.288
-4.564,-0.186,0.288
-4.56,-0.19,0.304
-4.556,-0.19,0.304
-4.552,-0.202,0.304
-4.548,-0.206,0.312
-4.544,-0.21,0.312
-4.54,-0.218,0.32
-4.536,-0.222,0.328
-4.532,-0.23,0.336
-4.528,-0.234,0.336
-4.524,-0.238,0.336
-4.52,-0.242,0.336
-4.516,-0.246,0.336
-4.512,-0.25,0.344
-4.508,-0.258,0.344
-4.504,-0.262,0.344
-4.5,-0.266,0.344
-4.496,-0.27,0.344
-4.492,-0.274,0.352
-4.488,-0.274,0.352
-4.484,-0.282,0.352
-4.48,-0.282,0.352
-4.476,-0.286,0.344
-4.472,-0.29,0.352
-4.468,-0.294,0.352
-4.464,-0.298,0.344
-4.46,-0.298,0.344
-4.456,-0.306,0.344
-4.452,-0.306,0.344
-4.448,-0.306,0.336
-4.444,-0.306,0.344
-4.44,-0.31,0.336
-4.436,-0.31,0.336
-4.432,-0.31,0.336
-4.428,-0.314,0.328
-4.424,-0.314,0.336
-4.42,-0.314,0.328
-4.416,-0.314,0.32
-4.412,-0.314,0.32
-4.408,-0.314,0.32
-4.404,-0.314,0.312
-4.4,-0.314,0.312
-4.396,-0.314,0.304
-4.392,-0.314,0.304
-4.388,-0.314,0.304
-4.384,-0.314,0.296
-4.38,-0.31,0.288
-4.376,-0.31,0.288
-4.372,-0.31,0.288
-4.368,-0.306,0.28
-4.364,-0.306,0.272
-4.36,-0.302,0.264
-4.356,-0.302,0.256
-4.352,-0.294,0.256
-4.348,-0.29,0.24
-4.344,-0.29,0.24
-4.34,-0.286,0.24
-4.336,-0.282,0.232
-4.332,-0.282,0.232
-4.328,-0.278,0.224
-4.324,-0.27,0.216
-4.32,-0.27,0.208
-4.316,-0.262,0.2
-4.312,-0.258,0.192
-4.308,-0.254,0.2
-4.304,-0.25,0.176
-4.3,-0.246,0.176
-4.296,-0.238,0.176
-4.292,-0.238,0.16
-4.288,-0.234,0.16
-4.284,-0.222,0.144
-4.28,-0.218,0.144
-4.276,-0.214,0.136
-4.272,-0.206,0.12
-4.268,-0.198,0.12
-4.264,-0.194,0.112
-4.26,-0.186,0.104
-4.256,-0.182,0.096
-4.252,-0.178,0.096
-4.248,-0.17,0.08800001
-4.244,-0.166,0.08000001
-4.24,-0.162,0.072
-4.236,-0.15,0.064
-4.232,-0.146,0.056
-4.228,-0.134,0.04
-4.224,-0.13,0.04
-4.22,-0.122,0.032
-4.216,-0.118,0.024
-4.212,-0.11,0.008
-4.208,-0.102,0
-4.204,-0.094,0
-4.2,-0.082,-0.016
-4.196,-0.074,-0.024
-4.192,-0.066,-0.032
-4.188,-0.062,-0.048
-4.184,-0.05,-0.048
-4.18,-0.042,-0.064
-4.176,-0.034,-0.072
-4.172,-0.03,-0.08800001
-4.168,-0.018,-0.096
-4.164,-0.014,-0.104
-4.16,-0.002,-0.112
-4.156,0.006,-0.128
-4.152,0.018,-0.128
-4.148,0.022,-0.136
-4.144,0.03,-0.144
-4.14,0.038,-0.152
-4.136,0.05,-0.16
-4.132,0.058,-0.168
-4.128,0.066,-0.176
-4.124,0.07,-0.184
-4.12,0.082,-0.192
-4.116,0.09,-0.2
-4.112,0.094,-0.208
-4.108,0.106,-0.216
-4.104,0.11,-0.224
-4.1,0.118,-0.224
-4.096,0.13,-0.232
-4.092,0.134,-0.24
-4.088,0.146,-0.248
-4.084,0.146,-0.256
-4.08,0.158,-0.256
-4.076,0.166,-0.272
-4.072,0.174,-0.272
-4.068,0.182,-0.28
-4.064,0.19,-0.288
-4.06,0.198,-0.288
-4.056,0.202,-0.288
-4.052,0.21,-0.296
-4.048,0.218,-0.296
-4.044,0.222,-0.296
-4.04,0.23,-0.312
-4.036,0.234,-0.312
-4.032,0.246,-0.312
-4.028,0.246,-0.328
-4.024,0.254,-0.336
-4.02,0.262,-0.328
-4.016,0.266,-0.336
-4.012,0.27,-0.344
-4.008,0.282,-0.344
-4.004,0.286,-0.344
-4,0.294,-0.344
-3.996,0.294,-0.344
-3.992,0.298,-0.352
-3.988,0.302,-0.36
-3.984,0.31,-0.36
-3.98,0.314,-0.36
-3.976,0.318,-0.36
-3.972,0.322,-0.368
-3.968,0.322,-0.368
-3.964,0.322,-0.368
-3.96,0.322,-0.376
-3.956,0.322,-0.376
-3.952,0.322,-0.384
-3.948,0.322,-0.368
-3.944,0.322,-0.368
-3.94,0.322,-0.376
-3.936,0.322,-0.384
-3.932,0.322,-0.384
-3.928,0.322,-0.376
-3.924,0.322,-0.384
-3.92,0.322,-0.384
-3.916,0.322,-0.376
-3.912,0.322,-0.384
-3.908,0.322,-0.384
-3.904,0.322,-0.376
-3.9,0.322,-0.376
-3.896,0.322,-0.376
-3.892,0.322,-0.376
-3.888,0.322,-0.376
-3.884,0.322,-0.368
-3.88,0.322,-0.36
-3.876,0.322,-0.368
-3.872,0.322,-0.368
-3.868,0.322,-0.368
-3.864,0.322,-0.36
-3.86,0.322,-0.36
-3.856,0.322,-0.352
-3.852,0.322,-0.352
-3.848,0.322,-0.344
-3.844,0.322,-0.344
-3.84,0.322,-0.344
-3.836,0.322,-0.336
-3.832,0.322,-0.336
-3.828,0.322,-0.328
-3.824,0.322,-0.32
-3.82,0.322,-0.32
-3.816,0.322,-0.312
-3.812,0.322,-0.312
-3.808,0.322,-0.312
-3.804,0.322,-0.304
-3.8,0.322,-0.296
-3.796,0.322,-0.288
-3.792,0.322,-0.288
-3.788,0.322,-0.288
-3.784,0.322,-0.28
-3.78,0.322,-0.272
-3.776,0.322,-0.264
-3.772,0.318,-0.272
-3.768,0.314,-0.256
-3.764,0.314,-0.248
-3.76,0.306,-0.24
-3.756,0.302,-0.232
-3.752,0.298,-0.232
-3.748,0.29,-0.224
-3.744,0.286,-0.216
-3.74,0.278,-0.216
-3.736,0.274,-0.208
-3.732,0.266,-0.2
-3.728,0.262,-0.2
-3.724,0.254,-0.192
-3.72,0.25,-0.176
-3.716,0.246,-0.176
-3.712,0.238,-0.168
-3.708,0.23,-0.16
-3.704,0.222,-0.152
-3.7,0.214,-0.152
-3.696,0.206,-0.136
-3.692,0.202,-0.136
-3.688,0.194,-0.128
-3.684,0.19,-0.12
-3.68,0.178,-0.112
-3.676,0.17,-0.104
-3.672,0.162,-0.096
-3.668,0.154,-0.08800001
-3.664,0.146,-0.08800001
-3.66,0.134,-0.072
-3.656,0.13,-0.072
-3.652,0.122,-0.056
-3.648,0.114,-0.056
-3.644,0.102,-0.048
-3.64,0.098,-0.032
-3.636,0.086,-0.032
-3.632,0.078,-0.016
-3.628,0.07,-0.016
-3.624,0.066,-0.008
-3.62,0.054,0
-3.616,0.046,0
-3.612,0.034,0.008
-3.608,0.026,0.024
-3.604,0.018,0.024
-3.6,0.01,0.04
-3.596,0.002,0.04
-3.592,-0.006,0.056
-3.588,-0.022,0.056
-3.584,-0.026,0.064
-3.58,-0.038,0.072
-3.576,-0.046,0.072
-3.572,-0.058,0.08000001
-3.568,-0.062,0.08800001
-3.564,-0.07,0.08800001
-3.56,-0.082,0.096
-3.556,-0.09,0.104
-3.552,-0.098,0.112
-3.548,-0.11,0.12
-3.544,-0.118,0.128
-3.54,-0.126,0.128
-3.536,-0.134,0.136
-3.532,-0.142,0.136
-3.528,-0.154,0.152
-3.524,-0.162,0.16
-3.52,-0.17,0.168
-3.516,-0.178,0.176
-3.512,-0.186,0.184
-3.508,-0.19,0.192
-3.504,-0.198,0.2
-3.5,-0.206,0.216
-3.496,-0.214,0.208
-3.492,-0.218,0.216
-3.488,-0.23,0.224
-3.484,-0.238,0.232
-3.48,-0.25,0.232
-3.476,-0.25,0.232
-3.472,-0.262,0.24
-3.468,-0.266,0.248
-3.464,-0.27,0.248
-3.46,-0.278,0.256
-3.456,-0.286,0.256
-3.452,-0.29,0.256
-3.448,-0.294,0.264
-3.444,-0.302,0.272
-3.44,-0.306,0.272
-3.436,-0.314,0.272
-3.432,-0.318,0.272
-3.428,-0.322,0.272
-3.424,-0.326,0.28
-3.42,-0.334,0.28
-3.416,-0.334,0.28
-3.412,-0.338,0.288
-3.408,-0.342,0.288
-3.404,-0.346,0.288
-3.4,-0.35,0.296
-3.396,-0.354,0.296
-3.392,-0.354,0.296
-3.388,-0.362,0.296
-3.384,-0.366,0.296
-3.38,-0.358,0.296
-3.376,-0.366,0.296
-3.372,-0.366,0.304
-3.368,-0.366,0.296
-3.364,-0.37,0.304
-3.36,-0.366,0.296
-3.356,-0.374,0.304
-3.352,-0.37,0.296
-3.348,-0.374,0.296
-3.344,-0.374,0.304
-3.34,-0.37,0.296
-3.336,-0.378,0.296
-3.332,-0.37,0.296
-3.328,-0.37,0.296
-3.324,-0.37,0.296
-3.32,-0.37,0.288
-3.316,-0.37,0.296
-3.312,-0.366,0.288
-3.308,-0.366,0.296
-3.304,-0.362,0.288
-3.3,-0.358,0.288
-3.296,-0.358,0.28
-3.292,-0.354,0.28
-3.288,-0.35,0.272
-3.284,-0.35,0.28
-3.28,-0.342,0.28
-3.276,-0.338,0.264
-3.272,-0.342,0.272
-3.268,-0.334,0.264
-3.264,-0.326,0.256
-3.26,-0.322,0.256
-3.256,-0.322,0.256
-3.252,-0.314,0.256
-3.248,-0.31,0.248
-3.244,-0.302,0.24
-3.24,-0.298,0.24
-3.236,-0.294,0.232
-3.232,-0.286,0.224
-3.228,-0.278,0.232
-3.224,-0.274,0.224
-3.22,-0.266,0.216
-3.216,-0.262,0.216
-3.212,-0.254,0.216
-3.208,-0.242,0.2
-3.204,-0.238,0.2
-3.2,-0.234,0.192
-3.196,-0.226,0.184
-3.192,-0.218,0.192
-3.188,-0.21,0.176
-3.184,-0.202,0.176
-3.18,-0.198,0.168
-3.176,-0.19,0.16
-3.172,-0.182,0.152
-3.168,-0.178,0.152
-3.164,-0.166,0.136
-3.16,-0.162,0.136
-3.156,-0.15,0.12
-3.152,-0.142,0.12
-3.148,-0.134,0.112
-3.144,-0.126,0.104
-3.14,-0.114,0.096
-3.136,-0.106,0.08800001
-3.132,-0.102,0.08000001
-3.128,-0.09,0.08000001
-3.124,-0.078,0.072
-3.12,-0.07,0.056
-3.116,-0.062,0.056
-3.112,-0.054,0.04
-3.108,-0.042,0.032
-3.104,-0.038,0.032
-3.1,-0.026,0.024
-3.096,-0.014,0.016
-3.092,-0.006,0
-3.088,0.002,0
-3.084,0.014,-0.008
-3.08,0.022,-0.024
-3.076,0.03,-0.016
-3.072,0.038,-0.032
-3.068,0.046,-0.04
-3.064,0.058,-0.048
-3.06,0.066,-0.056
-3.056,0.074,-0.064
-3.052,0.086,-0.072
-3.048,0.09,-0.08000001
-3.044,0.102,-0.08800001
-3.04,0.114,-0.08800001
-3.036,0.118,-0.096
-3.032,0.122,-0.104
-3.028,0.134,-0.112
-3.024,0.142,-0.12
-3.02,0.15,-0.128
-3.016,0.158,-0.136
-3.012,0.17,-0.128
-3.008,0.178,-0.144
-3.004,0.182,-0.152
-3,0.19,-0.152
-2.996,0.198,-0.168
-2.992,0.206,-0.168
-2.988,0.21,-0.168
-2.984,0.218,-0.176
-2.98,0.226,-0.184
-2.976,0.234,-0.192
-2.972,0.238,-0.192
-2.968,0.246,-0.2
-2.964,0.254,-0.208
-2.96,0.262,-0.208
-2.956,0.266,-0.216
-2.952,0.274,-0.224
-2.948,0.278,-0.224
-2.944,0.286,-0.224
-2.94,0.29,-0.232
-2.936,0.298,-0.24
-2.932,0.302,-0.24
-2.928,0.306,-0.248
-2.924,0.31,-0.256
-2.92,0.318,-0.264
-2.916,0.322,-0.264
-2.912,0.322,-0.28
-2.908,0.322,-0.28
-2.904,0.322,-0.288
-2.9,0.322,-0.296
-2.896,0.322,-0.288
-2.892,0.322,-0.296
-2.888,0.322,-0.304
-2.884,0.322,-0.304
-2.88,0.322,-0.312
-2.876,0.322,-0.312
-2.872,0.322,-0.32
-2.868,0.322,-0.32
-2.864,0.322,-0.328
-2.86,0.322,-0.32
-2.856,0.322,-0.328
-2.852,0.322,-0.328
-2.848,0.322,-0.336
-2.844,0.322,-0.336
-2.84,0.322,-0.336
-2.836,0.322,-0.336
-2.832,0.322,-0.336
-2.828,0.322,-0.344
-2.824,0.322,-0.336
-2.82,0.322,-0.336
-2.816,0.322,-0.344
-2.812,0.322,-0.344
-2.808,0.322,-0.344
-2.804,0.322,-0.344
-2.8,0.322,-0.344
-2.796,0.322,-0.344
-2.792,0.322,-0.344
-2.788,0.322,-0.336
-2.784,0.322,-0.336
-2.78,0.322,-0.344
-2.776,0.322,-0.336
-2.772,0.322,-0.336
-2.768,0.322,-0.336
-2.764,0.322,-0.336
-2.76,0.322,-0.344
-2.756,0.322,-0.336
-2.752,0.322,-0.336
-2.748,0.322,-0.328
-2.744,0.322,-0.336
-2.74,0.322,-0.328
-2.736,0.322,-0.328
-2.732,0.322,-0.336
-2.728,0.322,-0.328
-2.724,0.322,-0.328
-2.72,0.322,-0.328
-2.716,0.322,-0.312
-2.712,0.322,-0.32
-2.708,0.314,-0.32
-2.704,0.306,-0.32
-2.7,0.306,-0.312
-2.696,0.298,-0.312
-2.692,0.298,-0.304
-2.688,0.29,-0.304
-2.684,0.282,-0.304
-2.68,0.278,-0.296
-2.676,0.27,-0.288
-2.672,0.266,-0.28
-2.668,0.262,-0.28
-2.664,0.254,-0.272
-2.66,0.246,-0.272
-2.656,0.238,-0.272
-2.652,0.234,-0.264
-2.648,0.23,-0.256
-2.644,0.222,-0.248
-2.64,0.214,-0.24
-2.636,0.206,-0.232
-2.632,0.198,-0.232
-2.628,0.19,-0.224
-2.624,0.186,-0.224
-2.62,0.178,-0.2
-2.616,0.17,-0.2
-2.612,0.166,-0.2
-2.608,0.154,-0.184
-2.604,0.15,-0.176
-2.6,0.142,-0.176
-2.596,0.13,-0.176
-2.592,0.13,-0.16
-2.588,0.114,-0.168
-2.584,0.11,-0.16
-2.58,0.098,-0.152
-2.576,0.09,-0.144
-2.572,0.086,-0.136
-2.568,0.074,-0.128
-2.564,0.066,-0.128
-2.56,0.058,-0.12
-2.556,0.05,-0.112
-2.552,0.042,-0.112
-2.548,0.034,-0.096
-2.544,0.026,-0.08800001
-2.54,0.014,-0.08000001
-2.536,0.01,-0.072
-2.532,0.002,-0.072
-2.528,-0.006,-0.064
-2.524,-0.018,-0.056
-2.52,-0.03,-0.048
-2.516,-0.038,-0.04
-2.512,-0.046,-0.032
-2.508,-0.054,-0.024
-2.504,-0.062,-0.008
-2.5,-0.07,-0.008
-2.496,-0.078,0
-2.492,-0.086,0.016
-2.488,-0.094,0.024
-2.484,-0.102,0.032
-2.48,-0.11,0.032
-2.476,-0.122,0.04
-2.472,-0.13,0.048
-2.468,-0.134,0.056
-2.464,-0.142,0.072
-2.46,-0.15,0.072
-2.456,-0.162,0.08800001
-2.452,-0.166,0.08800001
-2.448,-0.17,0.08800001
-2.444,-0.182,0.096
-2.44,-0.186,0.104
-2.436,-0.19,0.112
-2.432,-0.198,0.12
-2.428,-0.202,0.128
-2.424,-0.21,0.136
-2.42,-0.218,0.144
-2.416,-0.222,0.144
-2.412,-0.226,0.16
-2.408,-0.234,0.168
-2.404,-0.242,0.176
-2.4,-0.25,0.176
-2.396,-0.254,0.192
-2.392,-0.262,0.2
-2.388,-0.266,0.2
-2.384,-0.27,0.208
-2.38,-0.274,0.208
-2.376,-0.278,0.208
-2.372,-0.286,0.224
-2.368,-0.286,0.224
-2.364,-0.29,0.232
-2.36,-0.294,0.248
-2.356,-0.302,0.24
-2.352,-0.306,0.248
-2.348,-0.306,0.248
-2.344,-0.31,0.256
-2.34,-0.314,0.256
-2.336,-0.314,0.264
-2.332,-0.318,0.272
-2.328,-0.322,0.272
-2.324,-0.322,0.272
-2.32,-0.326,0.28
-2.316,-0.326,0.288
-2.312,-0.334,0.288
-2.308,-0.33,0.296
-2.304,-0.33,0.288
-2.3,-0.33,0.304
-2.296,-0.334,0.304
-2.292,-0.334,0.304
-2.288,-0.334,0.312
-2.284,-0.334,0.312
-2.28,-0.334,0.312
-2.276,-0.334,0.312
-2.272,-0.334,0.32
-2.268,-0.334,0.32
-2.264,-0.33,0.32
-2.26,-0.334,0.328
-2.256,-0.33,0.328
-2.252,-0.33,0.328
-2.248,-0.326,0.328
-2.244,-0.326,0.336
-2.24,-0.322,0.328
-2.236,-0.318,0.328
-2.232,-0.318,0.336
-2.228,-0.314,0.328
-2.224,-0.31,0.336
-2.22,-0.31,0.328
-2.216,-0.31,0.336
-2.212,-0.306,0.336
-2.208,-0.302,0.328
-2.204,-0.298,0.336
-2.2,-0.294,0.328
-2.196,-0.29,0.328
-2.192,-0.286,0.328
-2.188,-0.278,0.32
-2.184,-0.27,0.312
-2.18,-0.27,0.32
-2.176,-0.266,0.32
-2.172,-0.262,0.32
-2.168,-0.254,0.312
-2.164,-0.25,0.304
-2.16,-0.242,0.312
-2.156,-0.238,0.304
-2.152,-0.234,0.304
-2.148,-0.226,0.296
-2.144,-0.218,0.288
-2.14,-0.218,0.288
-2.136,-0.206,0.288
-2.132,-0.202,0.28
-2.128,-0.198,0.272
-2.124,-0.19,0.264
-2.12,-0.186,0.256
-2.116,-0.186,0.256
-2.112,-0.174,0.256
-2.108,-0.17,0.248
-2.104,-0.162,0.24
-2.1,-0.154,0.24
-2.096,-0.146,0.224
-2.092,-0.138,0.224
-2.088,-0.134,0.224
-2.084,-0.126,0.208
-2.08,-0.122,0.2
-2.076,-0.11,0.2
-2.072,-0.106,0.192
-2.068,-0.098,0.184
-2.064,-0.094,0.184
-2.06,-0.082,0.168
-2.056,-0.074,0.16
-2.052,-0.066,0.16
-2.048,-0.058,0.152
-2.044,-0.05,0.144
-2.04,-0.046,0.136
-2.036,-0.034,0.128
-2.032,-0.03,0.128
-2.028,-0.022,0.12
-2.024,-0.01,0.104
-2.02,-0.006,0.096
-2.016,0.002,0.096
-2.012,0.01,0.096
-2.008,0.018,0.08800001
-2.004,0.026,0.08000001
-2,0.03,0.072
-1.996,0.038,0.064
-1.992,0.05,0.056
-1.988,0.058,0.056
-1.984,0.062,0.048
-1.98,0.066,0.04
-1.976,0.07,0.032
-1.972,0.078,0.024
-1.968,0.086,0.008
-1.964,0.094,0.008
-1.96,0.102,0
-1.956,0.11,-0.008
-1.952,0.114,-0.024
-1.948,0.122,-0.032
-1.944,0.13,-0.032
-1.94,0.134,-0.032
-1.936,0.142,-0.056
-1.932,0.15,-0.056
-1.928,0.158,-0.064
-1.924,0.158,-0.08800001
-1.92,0.166,-0.08800001
-1.916,0.174,-0.08800001
-1.912,0.178,-0.104
-1.908,0.186,-0.112
-1.904,0.194,-0.128
-1.9,0.198,-0.136
-1.896,0.202,-0.136
-1.892,0.206,-0.136
-1.888,0.21,-0.152
-1.884,0.218,-0.16
-1.88,0.222,-0.168
-1.876,0.226,-0.176
-1.872,0.23,-0.184
-1.868,0.234,-0.192
-1.864,0.242,-0.2
-1.86,0.246,-0.216
-1.856,0.25,-0.216
-1.852,0.25,-0.216
-1.848,0.262,-0.232
-1.844,0.262,-0.232
-1.84,0.262,-0.24
-1.836,0.27,-0.248
-1.832,0.274,-0.248
-1.828,0.274,-0.256
-1.824,0.278,-0.248
-1.82,0.278,-0.264
-1.816,0.286,-0.264
-1.812,0.286,-0.28
-1.808,0.29,-0.272
-1.804,0.29,-0.288
-1.8,0.294,-0.288
-1.796,0.294,-0.296
-1.792,0.294,-0.296
-1.788,0.298,-0.312
-1.784,0.302,-0.312
-1.78,0.302,-0.328
-1.776,0.302,-0.312
-1.772,0.302,-0.328
-1.768,0.306,-0.328
-1.764,0.306,-0.336
-1.76,0.306,-0.336
-1.756,0.31,-0.344
-1.752,0.31,-0.344
-1.748,0.306,-0.344
-1.744,0.31,-0.36
-1.74,0.31,-0.36
-1.736,0.31,-0.36
-1.732,0.306,-0.368
-1.728,0.306,-0.36
-1.724,0.31,-0.368
-1.72,0.306,-0.368
-1.716,0.306,-0.376
-1.712,0.302,-0.376
-1.708,0.302,-0.376
-1.704,0.298,-0.376
-1.7,0.302,-0.376
-1.696,0.298,-0.376
-1.692,0.298,-0.384
-1.688,0.294,-0.376
-1.684,0.298,-0.376
-1.68,0.294,-0.368
-1.676,0.294,-0.384
-1.672,0.29,-0.384
-1.668,0.286,-0.384
-1.664,0.286,-0.376
-1.66,0.278,-0.376
-1.656,0.278,-0.376
-1.652,0.274,-0.376
-1.648,0.274,-0.376
-1.644,0.27,-0.368
-1.64,0.262,-0.376
-1.636,0.266,-0.36
-1.632,0.262,-0.36
-1.628,0.254,-0.36
-1.624,0.25,-0.36
-1.62,0.25,-0.36
-1.616,0.246,-0.352
-1.612,0.238,-0.352
-1.608,0.238,-0.36
-1.604,0.234,-0.344
-1.6,0.226,-0.344
-1.596,0.226,-0.336
-1.592,0.214,-0.344
-1.588,0.214,-0.336
-1.584,0.206,-0.328
-1.58,0.206,-0.328
-1.576,0.198,-0.32
-1.572,0.194,-0.32
-1.568,0.186,-0.32
-1.564,0.186,-0.296
-1.56,0.182,-0.304
-1.556,0.174,-0.296
-1.552,0.174,-0.288
-1.548,0.162,-0.288
-1.544,0.158,-0.28
-1.54,0.15,-0.272
-1.536,0.146,-0.264
-1.532,0.142,-0.256
-1.528,0.134,-0.248
-1.524,0.13,-0.248
-1.52,0.126,-0.24
-1.516,0.118,-0.232
-1.512,0.114,-0.224
-1.508,0.106,-0.216
-1.504,0.098,-0.216
-1.5,0.094,-0.192
-1.496,0.09,-0.2
-1.492,0.082,-0.192
-1.488,0.074,-0.176
-1.484,0.066,-0.176
-1.48,0.066,-0.168
-1.476,0.058,-0.152
-1.472,0.054,-0.152
-1.468,0.046,-0.136
-1.464,0.038,-0.144
-1.46,0.034,-0.128
-1.456,0.026,-0.12
-1.452,0.022,-0.104
-1.448,0.018,-0.096
-1.444,0.01,-0.08800001
-1.44,0.002,-0.08000001
-1.436,-0.006,-0.072
-1.432,-0.006,-0.064
-1.428,-0.014,-0.056
-1.424,-0.022,-0.048
-1.42,-0.026,-0.032
-1.416,-0.034,-0.032
-1.412,-0.042,-0.024
-1.408,-0.046,-0.016
-1.404,-0.054,0
-1.4,-0.058,0.008
-1.396,-0.066,0.016
-1.392,-0.074,0.024
-1.388,-0.074,0.032
-1.384,-0.078,0.04
-1.38,-0.09,0.048
-1.376,-0.094,0.056
-1.372,-0.094,0.064
-1.368,-0.102,0.08000001
-1.364,-0.11,0.08800001
-1.36,-0.118,0.096
-1.356,-0.118,0.104
-1.352,-0.126,0.104
-1.348,-0.134,0.12
-1.344,-0.134,0.128
-1.34,-0.142,0.136
-1.336,-0.146,0.144
-1.332,-0.15,0.152
-1.328,-0.154,0.16
-1.324,-0.162,0.168
-1.32,-0.166,0.176
-1.316,-0.166,0.184
-1.312,-0.174,0.192
-1.308,-0.178,0.208
-1.304,-0.182,0.208
-1.3,-0.182,0.216
-1.296,-0.186,0.224
-1.292,-0.19,0.224
-1.288,-0.19,0.24
-1.284,-0.194,0.24
-1.28,-0.198,0.248
-1.276,-0.202,0.264
-1.272,-0.206,0.264
-1.268,-0.206,0.272
-1.264,-0.214,0.272
-1.26,-0.214,0.28
-1.256,-0.218,0.288
-1.252,-0.218,0.296
-1.248,-0.222,0.296
-1.244,-0.226,0.296
-1.24,-0.226,0.304
-1.236,-0.23,0.312
-1.232,-0.234,0.32
-1.228,-0.234,0.32
-1.224,-0.234,0.328
-1.22,-0.234,0.336
-1.216,-0.238,0.336
-1.212,-0.238,0.336
-1.208,-0.238,0.344
-1.204,-0.242,0.344
-1.2,-0.242,0.344
-1.196,-0.242,0.352
-1.192,-0.242,0.352
-1.188,-0.242,0.352
-1.184,-0.242,0.352
-1.18,-0.242,0.36
-1.176,-0.242,0.36
-1.172,-0.246,0.368
-1.168,-0.246,0.36
-1.164,-0.246,0.368
-1.16,-0.242,0.368
-1.156,-0.242,0.368
-1.152,-0.242,0.36
-1.148,-0.238,0.368
-1.144,-0.242,0.368
-1.14,-0.238,0.368
-1.136,-0.238,0.368
-1.132,-0.234,0.368
-1.128,-0.234,0.368
-1.124,-0.23,0.368
-1.12,-0.23,0.368
-1.116,-0.234,0.36
-1.112,-0.226,0.352
-1.108,-0.226,0.36
-1.104,-0.226,0.36
-1.1,-0.218,0.36
-1.096,-0.218,0.352
-1.092,-0.218,0.344
-1.088,-0.214,0.344
-1.084,-0.21,0.352
-1.08,-0.21,0.344
-1.076,-0.206,0.336
-1.072,-0.202,0.336
-1.068,-0.198,0.328
-1.064,-0.198,0.32
-1.06,-0.194,0.32
-1.056,-0.19,0.312
-1.052,-0.186,0.312
-1.048,-0.186,0.312
-1.044,-0.182,0.304
-1.04,-0.182,0.304
-1.036,-0.178,0.288
-1.032,-0.174,0.288
-1.028,-0.162,0.288
-1.024,-0.162,0.28
-1.02,-0.158,0.28
-1.016,-0.158,0.264
-1.012,-0.154,0.256
-1.008,-0.142,0.256
-1.004,-0.142,0.256
-1,-0.138,0.24
-0.995999999999999,-0.134,0.24
-0.992000000000001,-0.126,0.232
-0.988,-0.122,0.224
-0.983999999999998,-0.122,0.224
-0.98,-0.114,0.216
-0.975999999999999,-0.106,0.208
-0.972000000000001,-0.102,0.208
-0.968,-0.098,0.192
-0.963999999999999,-0.094,0.192
-0.960000000000001,-0.086,0.176
-0.956,-0.086,0.176
-0.951999999999998,-0.078,0.168
-0.948,-0.074,0.16
-0.943999999999999,-0.066,0.152
-0.940000000000001,-0.062,0.144
-0.936,-0.058,0.136
-0.931999999999999,-0.05,0.128
-0.928000000000001,-0.046,0.12
-0.923999999999999,-0.042,0.104
-0.919999999999998,-0.038,0.096
-0.916,-0.03,0.096
-0.911999999999999,-0.026,0.08800001
-0.908000000000001,-0.018,0.072
-0.904,-0.018,0.072
-0.899999999999999,-0.006,0.056
-0.896000000000001,-0.002,0.048
-0.891999999999999,0.002,0.04
-0.887999999999998,0.002,0.032
-0.884,0.01,0.024
-0.879999999999999,0.018,0.008
-0.876000000000001,0.022,0
-0.872,0.026,-0.008
-0.867999999999999,0.034,-0.016
-0.864000000000001,0.038,-0.024
-0.859999999999999,0.042,-0.032
-0.855999999999998,0.05,-0.04
-0.852,0.054,-0.056
-0.847999999999999,0.058,-0.056
-0.844000000000001,0.066,-0.072
-0.84,0.066,-0.08000001
-0.835999999999999,0.07,-0.08000001
-0.832000000000001,0.074,-0.096
-0.827999999999999,0.078,-0.104
-0.823999999999998,0.086,-0.112
-0.82,0.086,-0.12
-0.815999999999999,0.094,-0.128
-0.812000000000001,0.098,-0.144
-0.808,0.106,-0.152
-0.803999999999998,0.11,-0.152
-0.800000000000001,0.114,-0.16
-0.795999999999999,0.118,-0.168
-0.791999999999998,0.122,-0.184
-0.788,0.13,-0.184
-0.783999999999999,0.134,-0.192
-0.780000000000001,0.138,-0.2
-0.776,0.138,-0.216
-0.771999999999998,0.142,-0.216
-0.768000000000001,0.15,-0.224
-0.763999999999999,0.154,-0.232
-0.759999999999998,0.158,-0.24
-0.756,0.162,-0.248
-0.751999999999999,0.166,-0.256
-0.748000000000001,0.17,-0.264
-0.744,0.174,-0.272
-0.739999999999998,0.178,-0.272
-0.736000000000001,0.182,-0.272
-0.731999999999999,0.182,-0.272
-0.727999999999998,0.186,-0.288
-0.724,0.194,-0.296
-0.719999999999999,0.198,-0.296
-0.716000000000001,0.198,-0.312
-0.712,0.198,-0.304
-0.707999999999998,0.206,-0.32
-0.704000000000001,0.202,-0.336
-0.699999999999999,0.21,-0.336
-0.695999999999998,0.214,-0.328
-0.692,0.218,-0.352
-0.687999999999999,0.218,-0.344
-0.684000000000001,0.218,-0.36
-0.68,0.222,-0.36
-0.675999999999998,0.226,-0.368
-0.672000000000001,0.222,-0.36
-0.667999999999999,0.226,-0.368
-0.663999999999998,0.234,-0.368
-0.66,0.23,-0.368
-0.655999999999999,0.238,-0.376
-0.652000000000001,0.234,-0.384
-0.648,0.242,-0.376
-0.643999999999998,0.238,-0.384
-0.640000000000001,0.242,-0.384
-0.635999999999999,0.246,-0.384
-0.631999999999998,0.242,-0.384
-0.628,0.246,-0.392
-0.623999999999999,0.246,-0.384
-0.620000000000001,0.246,-0.392
-0.616,0.25,-0.384
-0.611999999999998,0.25,-0.392
-0.608000000000001,0.25,-0.392
-0.603999999999999,0.25,-0.392
-0.599999999999998,0.25,-0.392
-0.596,0.25,-0.392
-0.591999999999999,0.25,-0.392
-0.588000000000001,0.25,-0.392
-0.584,0.246,-0.384
-0.579999999999998,0.25,-0.392
-0.576000000000001,0.246,-0.384
-0.571999999999999,0.25,-0.384
-0.567999999999998,0.25,-0.384
-0.564,0.25,-0.384
-0.559999999999999,0.25,-0.376
-0.556000000000001,0.25,-0.376
-0.552,0.242,-0.376
-0.547999999999998,0.246,-0.368
-0.544,0.246,-0.368
-0.539999999999999,0.242,-0.368
-0.536000000000001,0.242,-0.368
-0.532,0.242,-0.368
-0.527999999999999,0.242,-0.36
-0.524000000000001,0.234,-0.36
-0.52,0.234,-0.352
-0.515999999999998,0.23,-0.344
-0.512,0.234,-0.344
-0.507999999999999,0.23,-0.336
-0.504000000000001,0.226,-0.328
-0.5,0.226,-0.336
-0.495999999999999,0.218,-0.328
-0.492000000000001,0.222,-0.32
-0.488,0.222,-0.312
-0.483999999999998,0.214,-0.312
-0.48,0.21,-0.296
-0.475999999999999,0.21,-0.296
-0.472000000000001,0.21,-0.296
-0.468,0.202,-0.288
-0.463999999999999,0.202,-0.28
-0.460000000000001,0.198,-0.272
-0.456,0.198,-0.272
-0.451999999999998,0.194,-0.256
-0.448,0.19,-0.256
-0.443999999999999,0.186,-0.248
-0.440000000000001,0.186,-0.24
-0.436,0.178,-0.232
-0.431999999999999,0.178,-0.224
-0.428000000000001,0.174,-0.216
-0.423999999999999,0.17,-0.208
-0.419999999999998,0.166,-0.2
-0.416,0.158,-0.184
-0.411999999999999,0.154,-0.184
-0.408000000000001,0.154,-0.176
-0.404,0.146,-0.168
-0.399999999999999,0.142,-0.16
-0.396000000000001,0.138,-0.144
-0.391999999999999,0.134,-0.144
-0.387999999999998,0.13,-0.136
-0.384,0.126,-0.128
-0.379999999999999,0.122,-0.12
-0.376000000000001,0.118,-0.112
-0.372,0.114,-0.096
-0.367999999999999,0.106,-0.096
-0.364000000000001,0.102,-0.08000001
-0.359999999999999,0.098,-0.08000001
-0.355999999999998,0.094,-0.072
-0.352,0.082,-0.056
-0.347999999999999,0.082,-0.056
-0.344000000000001,0.078,-0.04
-0.34,0.074,-0.024
-0.335999999999999,0.07,-0.024
-0.332000000000001,0.066,-0.008
-0.327999999999999,0.058,0
-0.323999999999998,0.054,0
-0.32,0.05,0.016
-0.315999999999999,0.046,0.024
-0.312000000000001,0.038,0.032
-0.308,0.034,0.04
-0.303999999999998,0.03,0.048
-0.300000000000001,0.022,0.056
-0.295999999999999,0.018,0.064
-0.291999999999998,0.01,0.064
-0.288,0.006,0.08800001
-0.283999999999999,0.002,0.096
-0.280000000000001,-0.002,0.096
-0.276,-0.01,0.104
-0.271999999999998,-0.018,0.112
-0.268000000000001,-0.018,0.12
-0.263999999999999,-0.03,0.128
-0.259999999999998,-0.026,0.136
-0.256,-0.038,0.144
-0.251999999999999,-0.046,0.152
-0.248000000000001,-0.05,0.16
-0.244,-0.054,0.168
-0.239999999999998,-0.058,0.184
-0.236000000000001,-0.062,0.2
-0.231999999999999,-0.066,0.192
-0.227999999999998,-0.074,0.2
-0.224,-0.082,0.216
-0.219999999999999,-0.086,0.216
-0.216000000000001,-0.09,0.216
-0.212,-0.094,0.232
-0.207999999999998,-0.102,0.232
-0.204000000000001,-0.106,0.24
-0.199999999999999,-0.114,0.248
-0.195999999999998,-0.118,0.256
-0.192,-0.126,0.264
-0.187999999999999,-0.126,0.272
-0.184000000000001,-0.134,0.272
-0.18,-0.138,0.272
-0.175999999999998,-0.142,0.288
-0.172000000000001,-0.146,0.288
-0.167999999999999,-0.15,0.288
-0.163999999999998,-0.154,0.296
-0.16,-0.162,0.296
-0.155999999999999,-0.166,0.304
-0.152000000000001,-0.17,0.304
-0.148,-0.17,0.312
-0.143999999999998,-0.178,0.312
-0.140000000000001,-0.182,0.32
-0.135999999999999,-0.186,0.328
-0.131999999999998,-0.186,0.328
-0.128,-0.19,0.328
-0.123999999999999,-0.194,0.336
-0.120000000000001,-0.198,0.336
-0.116,-0.202,0.344
-0.111999999999998,-0.206,0.336
-0.108000000000001,-0.206,0.344
-0.103999999999999,-0.21,0.344
-0.0999999999999979,-0.214,0.344
-0.0960000000000001,-0.218,0.344
-0.0919999999999987,-0.222,0.344
-0.088000000000001,-0.222,0.352
-0.0839999999999996,-0.222,0.352
-0.0799999999999983,-0.226,0.344
-0.0760000000000005,-0.23,0.344
-0.0719999999999992,-0.23,0.352
-0.0679999999999978,-0.234,0.352
-0.0640000000000001,-0.234,0.352
-0.0599999999999987,-0.238,0.344
-0.0560000000000009,-0.238,0.344
-0.0519999999999996,-0.242,0.344
-0.0479999999999983,-0.246,0.352
-0.0440000000000005,-0.246,0.344
-0.0399999999999991,-0.25,0.352
-0.0359999999999978,-0.25,0.352
-0.032,-0.25,0.344
-0.0279999999999987,-0.25,0.344
-0.0240000000000009,-0.254,0.344
-0.0199999999999996,-0.25,0.344
-0.0159999999999982,-0.254,0.328
-0.0120000000000005,-0.258,0.336
-0.00799999999999912,-0.254,0.328
-0.00400000000000134,-0.254,0.328
0,-0.25,0.328
0.00400000000000134,-0.254,0.328
0.00799999999999912,-0.254,0.32
0.0120000000000005,-0.254,0.312
0.0160000000000018,-0.254,0.304
0.0199999999999996,-0.25,0.312
0.0240000000000009,-0.25,0.304
0.0279999999999987,-0.25,0.296
0.032,-0.254,0.304
0.0360000000000014,-0.25,0.296
0.0399999999999991,-0.246,0.288
0.0440000000000005,-0.25,0.28
0.0480000000000018,-0.242,0.28
0.0519999999999996,-0.238,0.28
0.0560000000000009,-0.238,0.272
0.0599999999999987,-0.238,0.264
0.0640000000000001,-0.234,0.256
0.0680000000000014,-0.234,0.256
0.0719999999999992,-0.23,0.256
0.0760000000000005,-0.226,0.24
0.0800000000000018,-0.23,0.232
0.0839999999999996,-0.218,0.232
0.088000000000001,-0.222,0.224
0.0919999999999987,-0.218,0.224
0.0960000000000001,-0.21,0.208
0.100000000000001,-0.214,0.2
0.103999999999999,-0.206,0.2
0.108000000000001,-0.202,0.192
0.112000000000002,-0.198,0.184
0.116,-0.194,0.176
0.120000000000001,-0.19,0.176
0.123999999999999,-0.19,0.16
0.128,-0.186,0.152
0.132000000000001,-0.182,0.144
0.135999999999999,-0.178,0.136
0.140000000000001,-0.174,0.136
0.144000000000002,-0.166,0.128
0.148,-0.166,0.112
0.152000000000001,-0.162,0.104
0.155999999999999,-0.154,0.096
0.16,-0.15,0.096
0.164000000000001,-0.146,0.096
0.167999999999999,-0.138,0.08000001
0.172000000000001,-0.13,0.072
0.176000000000002,-0.126,0.072
0.18,-0.122,0.056
0.184000000000001,-0.118,0.048
0.187999999999999,-0.11,0.04
0.192,-0.11,0.024
0.196000000000002,-0.098,0.016
0.199999999999999,-0.098,0.016
0.204000000000001,-0.09,0.008
0.208000000000002,-0.086,0
0.212,-0.078,-0.016
0.216000000000001,-0.07,-0.024
0.219999999999999,-0.066,-0.032
0.224,-0.058,-0.032
0.228000000000002,-0.054,-0.048
0.231999999999999,-0.046,-0.056
0.236000000000001,-0.042,-0.064
0.240000000000002,-0.034,-0.072
0.244,-0.026,-0.072
0.248000000000001,-0.022,-0.096
0.251999999999999,-0.014,-0.096
0.256,-0.01,-0.104
0.260000000000002,-0.002,-0.104
0.263999999999999,0.006,-0.12
0.268000000000001,0.01,-0.128
0.272000000000002,0.022,-0.128
0.276,0.026,-0.144
0.280000000000001,0.03,-0.152
0.283999999999999,0.034,-0.16
0.288,0.046,-0.168
0.292000000000002,0.05,-0.168
0.295999999999999,0.058,-0.176
0.300000000000001,0.062,-0.184
0.304000000000002,0.07,-0.192
0.308,0.07,-0.2
0.312000000000001,0.078,-0.208
0.315999999999999,0.082,-0.224
0.32,0.09,-0.216
0.324000000000002,0.102,-0.224
0.327999999999999,0.106,-0.232
0.332000000000001,0.11,-0.232
0.336000000000002,0.114,-0.24
0.34,0.122,-0.248
0.344000000000001,0.126,-0.256
0.347999999999999,0.134,-0.264
0.352,0.138,-0.264
0.356000000000002,0.142,-0.28
0.359999999999999,0.15,-0.28
0.364000000000001,0.158,-0.28
0.368000000000002,0.162,-0.28
0.372,0.166,-0.296
0.376000000000001,0.174,-0.296
0.379999999999999,0.178,-0.296
0.384,0.186,-0.296
0.388000000000002,0.19,-0.296
0.391999999999999,0.198,-0.304
0.396000000000001,0.198,-0.312
0.400000000000002,0.206,-0.304
0.404,0.206,-0.312
0.408000000000001,0.21,-0.32
0.411999999999999,0.218,-0.312
0.416,0.222,-0.328
0.420000000000002,0.226,-0.328
0.423999999999999,0.23,-0.328
0.428000000000001,0.234,-0.336
0.432000000000002,0.242,-0.336
0.436,0.242,-0.328
0.440000000000001,0.246,-0.336
0.443999999999999,0.25,-0.336
0.448,0.258,-0.344
0.452000000000002,0.258,-0.352
0.456,0.262,-0.344
0.460000000000001,0.266,-0.352
0.464000000000002,0.266,-0.352
0.468,0.274,-0.352
0.472000000000001,0.27,-0.344
0.475999999999999,0.274,-0.352
0.48,0.282,-0.352
0.484000000000002,0.282,-0.352
0.488,0.286,-0.352
0.492000000000001,0.286,-0.352
0.495999999999999,0.286,-0.352
0.5,0.29,-0.352
0.504000000000001,0.29,-0.344
0.507999999999999,0.294,-0.344
0.512,0.294,-0.336
0.516000000000002,0.294,-0.344
0.52,0.298,-0.344
0.524000000000001,0.298,-0.336
0.527999999999999,0.298,-0.336
0.532,0.298,-0.328
0.536000000000001,0.302,-0.328
0.539999999999999,0.298,-0.328
0.544,0.302,-0.328
0.548000000000002,0.302,-0.32
0.552,0.302,-0.312
0.556000000000001,0.302,-0.32
0.559999999999999,0.298,-0.304
0.564,0.298,-0.304
0.568000000000001,0.302,-0.304
0.571999999999999,0.298,-0.296
0.576000000000001,0.298,-0.296
0.580000000000002,0.298,-0.296
0.584,0.298,-0.288
0.588000000000001,0.298,-0.28
0.591999999999999,0.294,-0.28
0.596,0.29,-0.272
0.600000000000001,0.29,-0.272
0.603999999999999,0.29,-0.272
0.608000000000001,0.286,-0.256
0.612000000000002,0.286,-0.256
0.616,0.286,-0.24
0.620000000000001,0.282,-0.24
0.623999999999999,0.274,-0.232
0.628,0.278,-0.224
0.632000000000001,0.274,-0.224
0.635999999999999,0.27,-0.216
0.640000000000001,0.266,-0.2
0.644000000000002,0.266,-0.2
0.648,0.262,-0.192
0.652000000000001,0.258,-0.192
0.655999999999999,0.254,-0.176
0.66,0.25,-0.184
0.664000000000001,0.246,-0.168
0.667999999999999,0.242,-0.176
0.672000000000001,0.238,-0.152
0.676000000000002,0.234,-0.144
0.68,0.23,-0.152
0.684000000000001,0.222,-0.144
0.687999999999999,0.222,-0.128
0.692,0.214,-0.128
0.696000000000002,0.214,-0.12
0.699999999999999,0.206,-0.104
0.704000000000001,0.202,-0.104
0.708000000000002,0.194,-0.104
0.712,0.19,-0.08000001
0.716000000000001,0.186,-0.08000001
0.719999999999999,0.178,-0.072
0.724,0.174,-0.064
0.728000000000002,0.17,-0.056
0.731999999999999,0.162,-0.056
0.736000000000001,0.158,-0.048
0.740000000000002,0.146,-0.04
0.744,0.142,-0.024
0.748000000000001,0.134,-0.024
0.751999999999999,0.134,-0.016
0.756,0.122,-0.008
0.760000000000002,0.118,0
0.763999999999999,0.106,0
0.768000000000001,0.102,0.008
0.772000000000002,0.098,0.024
0.776,0.094,0.024
0.780000000000001,0.082,0.04
0.783999999999999,0.074,0.04
0.788,0.07,0.056
0.792000000000002,0.066,0.056
0.795999999999999,0.058,0.064
0.800000000000001,0.05,0.064
0.804000000000002,0.042,0.072
0.808,0.034,0.08000001
0.812000000000001,0.026,0.08800001
0.815999999999999,0.018,0.096
0.82,0.014,0.096
0.824000000000002,0.006,0.104
0.827999999999999,-0.002,0.112
0.832000000000001,-0.01,0.112
0.836000000000002,-0.022,0.128
0.84,-0.022,0.128
0.844000000000001,-0.03,0.136
0.847999999999999,-0.042,0.136
0.852,-0.05,0.144
0.856000000000002,-0.058,0.152
0.859999999999999,-0.062,0.16
0.864000000000001,-0.07,0.168
0.868000000000002,-0.078,0.176
0.872,-0.086,0.184
0.876000000000001,-0.094,0.184
0.879999999999999,-0.102,0.192
0.884,-0.11,0.2
0.888000000000002,-0.114,0.2
0.891999999999999,-0.122,0.208
0.896000000000001,-0.13,0.208
0.900000000000002,-0.138,0.216
0.904,-0.146,0.216
0.908000000000001,-0.154,0.224
0.911999999999999,-0.158,0.224
0.916,-0.162,0.232
0.920000000000002,-0.174,0.232
0.923999999999999,-0.182,0.232
0.928000000000001,-0.182,0.248
0.932000000000002,-0.19,0.248
0.936,-0.194,0.248
0.940000000000001,-0.202,0.256
0.943999999999999,-0.206,0.256
0.948,-0.214,0.256
0.952000000000002,-0.222,0.272
0.956,-0.226,0.264
0.960000000000001,-0.23,0.272
0.964000000000002,-0.238,0.264
0.968,-0.242,0.272
0.972000000000001,-0.25,0.272
0.975999999999999,-0.254,0.28
0.98,-0.262,0.28
0.984000000000002,-0.266,0.28
0.988,-0.266,0.28
0.992000000000001,-0.274,0.288
0.995999999999999,-0.278,0.28
1,-0.286,0.288
1.004,-0.286,0.288
1.008,-0.294,0.288
1.012,-0.298,0.296
1.016,-0.298,0.296
1.02,-0.306,0.296
1.024,-0.306,0.296
1.028,-0.31,0.288
1.032,-0.314,0.288
1.036,-0.318,0.288
1.04,-0.318,0.296
1.044,-0.322,0.288
1.048,-0.322,0.296
1.052,-0.322,0.296
1.056,-0.326,0.296
1.06,-0.33,0.28
1.064,-0.33,0.288
1.068,-0.334,0.288
1.072,-0.334,0.288
1.076,-0.334,0.28
1.08,-0.334,0.28
1.084,-0.334,0.28
1.088,-0.338,0.28
1.092,-0.334,0.272
1.096,-0.338,0.28
1.1,-0.33,0.264
1.104,-0.334,0.272
1.108,-0.33,0.264
1.112,-0.334,0.264
1.116,-0.33,0.264
1.12,-0.33,0.256
1.124,-0.33,0.256
1.128,-0.326,0.248
1.132,-0.326,0.248
1.136,-0.322,0.248
1.14,-0.322,0.24
1.144,-0.318,0.24
1.148,-0.314,0.232
1.152,-0.314,0.232
1.156,-0.31,0.224
1.16,-0.306,0.224
1.164,-0.306,0.208
1.168,-0.298,0.208
1.172,-0.294,0.208
1.176,-0.29,0.2
1.18,-0.29,0.2
1.184,-0.282,0.192
1.188,-0.278,0.184
1.192,-0.274,0.184
1.196,-0.266,0.168
1.2,-0.262,0.168
1.204,-0.258,0.16
1.208,-0.254,0.16
1.212,-0.25,0.152
1.216,-0.242,0.152
1.22,-0.238,0.136
1.224,-0.23,0.136
1.228,-0.226,0.128
1.232,-0.218,0.128
1.236,-0.21,0.12
1.24,-0.206,0.112
1.244,-0.202,0.104
1.248,-0.194,0.104
1.252,-0.186,0.096
1.256,-0.182,0.096
1.26,-0.178,0.08800001
1.264,-0.166,0.08000001
1.268,-0.162,0.072
1.272,-0.158,0.064
1.276,-0.15,0.056
1.28,-0.138,0.056
1.284,-0.13,0.048
1.288,-0.126,0.048
1.292,-0.114,0.032
1.296,-0.11,0.032
1.3,-0.098,0.016
1.304,-0.09,0.016
1.308,-0.082,0
1.312,-0.078,0
1.316,-0.066,-0.008
1.32,-0.058,-0.016
1.324,-0.05,-0.024
1.328,-0.042,-0.024
1.332,-0.034,-0.032
1.336,-0.022,-0.04
1.34,-0.018,-0.048
1.344,-0.01,-0.056
1.348,-0.002,-0.064
1.352,0.006,-0.064
1.356,0.014,-0.072
1.36,0.022,-0.08000001
1.364,0.03,-0.08000001
1.368,0.042,-0.08800001
1.372,0.05,-0.096
1.376,0.058,-0.104
1.38,0.066,-0.112
1.384,0.07,-0.12
1.388,0.078,-0.128
1.392,0.086,-0.128
1.396,0.094,-0.136
1.4,0.102,-0.144
1.404,0.11,-0.144
1.408,0.114,-0.152
1.412,0.126,-0.16
1.416,0.13,-0.168
1.42,0.138,-0.168
1.424,0.146,-0.176
1.428,0.158,-0.176
1.432,0.166,-0.184
1.436,0.174,-0.184
1.44,0.178,-0.192
1.444,0.186,-0.208
1.448,0.19,-0.2
1.452,0.198,-0.208
1.456,0.202,-0.208
1.46,0.21,-0.216
1.464,0.218,-0.224
1.468,0.226,-0.224
1.472,0.23,-0.232
1.476,0.238,-0.232
1.48,0.242,-0.232
1.484,0.25,-0.24
1.488,0.254,-0.248
1.492,0.258,-0.248
1.496,0.262,-0.256
1.5,0.266,-0.256
1.504,0.274,-0.256
1.508,0.278,-0.264
1.512,0.282,-0.264
1.516,0.286,-0.272
1.52,0.294,-0.264
1.524,0.298,-0.272
1.528,0.298,-0.28
1.532,0.302,-0.28
1.536,0.306,-0.28
1.54,0.306,-0.28
1.544,0.314,-0.288
1.548,0.318,-0.288
1.552,0.318,-0.28
1.556,0.322,-0.28
1.56,0.322,-0.288
1.564,0.322,-0.296
1.568,0.322,-0.288
1.572,0.322,-0.288
1.576,0.322,-0.296
1.58,0.322,-0.288
1.584,0.322,-0.296
1.588,0.322,-0.296
1.592,0.322,-0.288
1.596,0.322,-0.288
1.6,0.322,-0.296
1.604,0.322,-0.288
1.608,0.322,-0.288
1.612,0.322,-0.296
1.616,0.322,-0.288
1.62,0.322,-0.288
1.624,0.322,-0.288
1.628,0.322,-0.288
1.632,0.322,-0.296
1.636,0.322,-0.288
1.64,0.322,-0.28
1.644,0.322,-0.288
1.648,0.322,-0.288
1.652,0.322,-0.28
1.656,0.322,-0.272
1.66,0.322,-0.28
1.664,0.322,-0.272
1.668,0.322,-0.264
1.672,0.322,-0.272
1.676,0.322,-0.256
1.68,0.322,-0.264
1.684,0.322,-0.264
1.688,0.322,-0.256
1.692,0.318,-0.256
1.696,0.322,-0.248
1.7,0.314,-0.248
1.704,0.31,-0.248
1.708,0.306,-0.248
1.712,0.302,-0.24
1.716,0.298,-0.24
1.72,0.294,-0.232
1.724,0.29,-0.224
1.728,0.286,-0.216
1.732,0.282,-0.216
1.736,0.278,-0.208
1.74,0.274,-0.2
1.744,0.266,-0.2
1.748,0.266,-0.2
1.752,0.258,-0.192
1.756,0.25,-0.192
1.76,0.246,-0.184
1.764,0.242,-0.176
1.768,0.234,-0.168
1.772,0.226,-0.168
1.776,0.222,-0.16
1.78,0.222,-0.16
1.784,0.21,-0.16
1.788,0.206,-0.152
1.792,0.198,-0.144
1.796,0.194,-0.136
1.8,0.182,-0.128
1.804,0.178,-0.12
1.808,0.17,-0.12
1.812,0.162,-0.104
1.816,0.154,-0.104
1.82,0.15,-0.104
1.824,0.142,-0.096
1.828,0.134,-0.08800001
1.832,0.126,-0.08000001
1.836,0.118,-0.08000001
1.84,0.114,-0.072
1.844,0.102,-0.064
1.848,0.094,-0.056
1.852,0.086,-0.048
1.856,0.078,-0.048
1.86,0.07,-0.04
1.864,0.066,-0.032
1.868,0.058,-0.024
1.872,0.046,-0.016
1.876,0.038,-0.016
1.88,0.03,0
1.884,0.026,0
1.888,0.014,0.008
1.892,0.002,0.008
1.896,-0.002,0.024
1.9,-0.01,0.032
1.904,-0.018,0.032
1.908,-0.03,0.04
1.912,-0.038,0.048
1.916,-0.046,0.048
1.92,-0.058,0.056
1.924,-0.062,0.064
1.928,-0.066,0.072
1.932,-0.078,0.08000001
1.936,-0.09,0.08000001
1.94,-0.098,0.08800001
1.944,-0.102,0.08800001
1.948,-0.11,0.096
1.952,-0.122,0.104
1.956,-0.126,0.104
1.96,-0.134,0.112
1.964,-0.142,0.12
1.968,-0.15,0.12
1.972,-0.162,0.128
1.976,-0.17,0.128
1.98,-0.178,0.136
1.984,-0.182,0.136
1.988,-0.19,0.144
1.992,-0.194,0.152
1.996,-0.202,0.16
2,-0.206,0.16
2.004,-0.214,0.16
2.008,-0.222,0.168
2.012,-0.226,0.176
2.016,-0.234,0.176
2.02,-0.242,0.184
2.024,-0.246,0.184
2.028,-0.254,0.184
2.032,-0.258,0.192
2.036,-0.266,0.2
2.04,-0.27,0.192
2.044,-0.278,0.208
2.048,-0.286,0.208
2.052,-0.29,0.208
2.056,-0.29,0.216
2.06,-0.298,0.216
2.064,-0.302,0.224
2.068,-0.31,0.224
2.072,-0.31,0.224
2.076,-0.314,0.232
2.08,-0.318,0.232
2.084,-0.322,0.232
2.088,-0.326,0.24
2.092,-0.326,0.24
2.096,-0.326,0.248
2.1,-0.33,0.248
2.104,-0.338,0.248
2.108,-0.342,0.256
2.112,-0.342,0.256
2.116,-0.342,0.256
2.12,-0.346,0.264
2.124,-0.35,0.256
2.128,-0.35,0.256
2.132,-0.346,0.264
2.136,-0.35,0.264
2.14,-0.35,0.272
2.144,-0.354,0.264
2.148,-0.354,0.272
2.152,-0.35,0.272
2.156,-0.354,0.264
2.16,-0.354,0.272
2.164,-0.35,0.264
2.168,-0.35,0.272
2.172,-0.346,0.264
2.176,-0.346,0.272
2.18,-0.346,0.264
2.184,-0.342,0.264
2.188,-0.346,0.272
2.192,-0.342,0.272
2.196,-0.342,0.264
2.2,-0.338,0.272
2.204,-0.334,0.264
2.208,-0.33,0.264
2.212,-0.326,0.264
2.216,-0.326,0.256
2.22,-0.322,0.264
2.224,-0.318,0.256
2.228,-0.314,0.256
2.232,-0.31,0.256
2.236,-0.306,0.248
2.24,-0.302,0.248
2.244,-0.298,0.24
2.248,-0.29,0.248
2.252,-0.286,0.24
2.256,-0.282,0.24
2.26,-0.274,0.232
2.264,-0.27,0.232
2.268,-0.262,0.232
2.272,-0.258,0.224
2.276,-0.254,0.224
2.28,-0.246,0.216
2.284,-0.242,0.216
2.288,-0.238,0.216
2.292,-0.23,0.208
2.296,-0.222,0.208
2.3,-0.214,0.2
2.304,-0.21,0.2
2.308,-0.202,0.192
2.312,-0.194,0.192
2.316,-0.19,0.192
2.32,-0.186,0.184
2.324,-0.174,0.176
2.328,-0.174,0.168
2.332,-0.166,0.168
2.336,-0.154,0.16
2.34,-0.15,0.152
2.344,-0.142,0.144
2.348,-0.134,0.144
2.352,-0.126,0.144
2.356,-0.118,0.136
2.36,-0.11,0.136
2.364,-0.098,0.12
2.368,-0.094,0.112
2.372,-0.082,0.12
2.376,-0.074,0.112
2.38,-0.07,0.096
2.384,-0.058,0.096
2.388,-0.054,0.096
2.392,-0.046,0.08800001
2.396,-0.034,0.08000001
2.4,-0.026,0.072
2.404,-0.018,0.072
2.408,-0.01,0.064
2.412,-0.002,0.056
2.416,0.006,0.048
2.42,0.014,0.04
2.424,0.022,0.04
2.428,0.03,0.032
2.432,0.038,0.024
2.436,0.046,0.016
2.44,0.054,0.008
2.444,0.066,0.008
2.448,0.07,0
2.452,0.074,-0.016
2.456,0.082,-0.016
2.46,0.09,-0.024
2.464,0.098,-0.032
2.468,0.106,-0.032
2.472,0.114,-0.04
2.476,0.122,-0.048
2.48,0.134,-0.056
2.484,0.138,-0.064
2.488,0.146,-0.072
2.492,0.15,-0.072
2.496,0.158,-0.08000001
2.5,0.166,-0.08800001
2.504,0.174,-0.096
2.508,0.178,-0.096
2.512,0.186,-0.104
2.516,0.19,-0.104
2.52,0.198,-0.112
2.524,0.202,-0.12
2.528,0.21,-0.136
2.532,0.214,-0.136
2.536,0.222,-0.152
2.54,0.226,-0.152
2.544,0.23,-0.152
2.548,0.242,-0.16
2.552,0.238,-0.16
2.556,0.246,-0.168
2.56,0.25,-0.176
2.564,0.262,-0.184
2.568,0.262,-0.184
2.572,0.262,-0.192
2.576,0.27,-0.2
2.58,0.274,-0.2
2.584,0.278,-0.208
2.588,0.282,-0.216
2.592,0.286,-0.224
2.596,0.29,-0.224
2.6,0.29,-0.224
2.604,0.294,-0.232
2.608,0.298,-0.232
2.612,0.298,-0.248
2.616,0.302,-0.24
2.62,0.31,-0.248
2.624,0.306,-0.24
2.628,0.31,-0.256
2.632,0.314,-0.264
2.636,0.318,-0.256
2.64,0.318,-0.272
2.644,0.322,-0.272
2.648,0.318,-0.272
2.652,0.318,-0.272
2.656,0.322,-0.28
2.66,0.322,-0.28
2.664,0.322,-0.288
2.668,0.322,-0.28
2.672,0.322,-0.296
2.676,0.322,-0.288
2.68,0.322,-0.288
2.684,0.322,-0.288
2.688,0.322,-0.296
2.692,0.322,-0.296
2.696,0.322,-0.296
2.7,0.322,-0.296
2.704,0.322,-0.304
2.708,0.322,-0.296
2.712,0.318,-0.296
2.716,0.318,-0.304
2.72,0.322,-0.304
2.724,0.314,-0.296
2.728,0.31,-0.312
2.732,0.314,-0.304
2.736,0.31,-0.304
2.74,0.306,-0.304
2.744,0.302,-0.304
2.748,0.306,-0.304
2.752,0.302,-0.296
2.756,0.298,-0.304
2.76,0.294,-0.304
2.764,0.294,-0.304
2.768,0.286,-0.296
2.772,0.286,-0.288
2.776,0.282,-0.296
2.78,0.274,-0.296
2.784,0.274,-0.288
2.788,0.27,-0.288
2.792,0.262,-0.288
2.796,0.262,-0.28
2.8,0.254,-0.28
2.804,0.254,-0.28
2.808,0.246,-0.28
2.812,0.242,-0.28
2.816,0.242,-0.272
2.82,0.234,-0.272
2.824,0.222,-0.272
2.828,0.222,-0.264
2.832,0.218,-0.256
2.836,0.21,-0.256
2.84,0.206,-0.248
2.844,0.202,-0.24
2.848,0.194,-0.24
2.852,0.19,-0.24
2.856,0.182,-0.232
2.86,0.178,-0.232
2.864,0.174,-0.232
2.868,0.162,-0.216
2.872,0.158,-0.216
2.876,0.15,-0.208
2.88,0.146,-0.208
2.884,0.138,-0.208
2.888,0.13,-0.192
2.892,0.126,-0.192
2.896,0.118,-0.184
2.9,0.11,-0.176
2.904,0.106,-0.176
2.908,0.098,-0.168
2.912,0.09,-0.16
2.916,0.082,-0.152
2.92,0.078,-0.152
2.924,0.07,-0.144
2.928,0.066,-0.136
2.932,0.058,-0.128
2.936,0.05,-0.12
2.94,0.042,-0.12
2.944,0.034,-0.112
2.948,0.026,-0.104
2.952,0.022,-0.096
2.956,0.014,-0.096
2.96,0.006,-0.08800001
2.964,-0.002,-0.072
2.968,-0.01,-0.072
2.972,-0.014,-0.064
2.976,-0.022,-0.048
2.98,-0.03,-0.056
2.984,-0.034,-0.048
2.988,-0.042,-0.032
2.992,-0.05,-0.024
2.996,-0.058,-0.024
3,-0.062,-0.016
3.004,-0.07,-0.008
3.008,-0.074,0
3.012,-0.086,0.008
3.016,-0.094,0.016
3.02,-0.098,0.016
3.024,-0.106,0.032
3.028,-0.118,0.024
3.032,-0.122,0.04
3.036,-0.126,0.048
3.04,-0.134,0.056
3.044,-0.138,0.056
3.048,-0.146,0.072
3.052,-0.15,0.08000001
3.056,-0.162,0.08000001
3.06,-0.166,0.08800001
3.064,-0.17,0.096
3.068,-0.174,0.096
3.072,-0.182,0.112
3.076,-0.186,0.112
3.08,-0.19,0.12
3.084,-0.194,0.12
3.088,-0.198,0.128
3.092,-0.202,0.136
3.096,-0.21,0.136
3.1,-0.214,0.152
3.104,-0.218,0.16
3.108,-0.222,0.168
3.112,-0.226,0.16
3.116,-0.23,0.176
3.12,-0.234,0.176
3.124,-0.238,0.184
3.128,-0.242,0.184
3.132,-0.246,0.192
3.136,-0.25,0.2
3.14,-0.25,0.208
3.144,-0.258,0.208
3.148,-0.262,0.216
3.152,-0.266,0.216
3.156,-0.262,0.224
3.16,-0.27,0.224
3.164,-0.274,0.24
3.168,-0.274,0.24
3.172,-0.274,0.24
3.176,-0.278,0.248
3.18,-0.278,0.248
3.184,-0.282,0.256
3.188,-0.286,0.264
3.192,-0.286,0.264
3.196,-0.286,0.264
3.2,-0.286,0.272
3.204,-0.29,0.272
3.208,-0.29,0.28
3.212,-0.286,0.288
3.216,-0.29,0.288
3.22,-0.29,0.288
3.224,-0.29,0.296
3.228,-0.29,0.296
3.232,-0.29,0.296
3.236,-0.286,0.296
3.24,-0.29,0.304
3.244,-0.286,0.304
3.248,-0.282,0.304
3.252,-0.286,0.304
3.256,-0.286,0.312
3.26,-0.282,0.304
3.264,-0.278,0.312
3.268,-0.282,0.32
3.272,-0.278,0.312
3.276,-0.274,0.312
3.28,-0.27,0.312
3.284,-0.27,0.312
3.288,-0.266,0.32
3.292,-0.266,0.312
3.296,-0.258,0.32
3.3,-0.258,0.32
3.304,-0.258,0.312
3.308,-0.25,0.312
3.312,-0.25,0.312
3.316,-0.246,0.304
3.32,-0.238,0.312
3.324,-0.238,0.304
3.328,-0.234,0.312
3.332,-0.23,0.304
3.336,-0.222,0.304
3.34,-0.222,0.296
3.344,-0.214,0.296
3.348,-0.21,0.296
3.352,-0.206,0.296
3.356,-0.202,0.288
3.36,-0.194,0.288
3.364,-0.19,0.288
3.368,-0.186,0.288
3.372,-0.186,0.272
3.376,-0.182,0.272
3.38,-0.174,0.264
3.384,-0.17,0.272
3.388,-0.166,0.264
3.392,-0.158,0.256
3.396,-0.154,0.248
3.4,-0.15,0.248
3.404,-0.142,0.248
3.408,-0.134,0.24
3.412,-0.13,0.24
3.416,-0.126,0.232
3.42,-0.122,0.224
3.424,-0.114,0.216
3.428,-0.11,0.208
3.432,-0.102,0.216
3.436,-0.094,0.2
3.44,-0.09,0.2
3.444,-0.082,0.192
3.448,-0.078,0.184
3.452,-0.07,0.184
3.456,-0.062,0.176
3.46,-0.058,0.168
3.464,-0.054,0.16
3.468,-0.046,0.152
3.472,-0.038,0.144
3.476,-0.03,0.144
3.48,-0.026,0.136
3.484,-0.018,0.128
3.488,-0.01,0.12
3.492,-0.006,0.112
3.496,-0.002,0.104
3.5,0.006,0.096
3.504,0.01,0.096
3.508,0.018,0.08800001
3.512,0.022,0.08000001
3.516,0.03,0.072
3.52,0.038,0.072
3.524,0.046,0.056
3.528,0.05,0.048
3.532,0.054,0.04
3.536,0.062,0.032
3.54,0.066,0.032
3.544,0.07,0.024
3.548,0.078,0.008
3.552,0.082,0
3.556,0.09,-0.008
3.56,0.09,-0.016
3.564,0.098,-0.024
3.568,0.102,-0.032
3.572,0.106,-0.04
3.576,0.114,-0.04
3.58,0.122,-0.056
3.584,0.126,-0.056
3.588,0.134,-0.072
3.592,0.134,-0.08000001
3.596,0.142,-0.08800001
3.6,0.142,-0.08800001
3.604,0.15,-0.096
3.608,0.158,-0.104
3.612,0.158,-0.12
3.616,0.166,-0.12
3.62,0.17,-0.136
3.624,0.174,-0.136
3.628,0.178,-0.144
3.632,0.182,-0.16
3.636,0.186,-0.16
3.64,0.19,-0.168
3.644,0.194,-0.168
3.648,0.198,-0.184
3.652,0.202,-0.184
3.656,0.202,-0.192
3.66,0.206,-0.2
3.664,0.21,-0.208
3.668,0.21,-0.216
3.672,0.218,-0.216
3.676,0.222,-0.224
3.68,0.222,-0.232
3.684,0.226,-0.24
3.688,0.222,-0.24
3.692,0.23,-0.248
3.696,0.234,-0.248
3.7,0.234,-0.256
3.704,0.234,-0.264
3.708,0.238,-0.272
3.712,0.242,-0.28
3.716,0.242,-0.28
3.72,0.242,-0.288
3.724,0.246,-0.288
3.728,0.246,-0.296
3.732,0.25,-0.296
3.736,0.25,-0.296
3.74,0.246,-0.312
3.744,0.254,-0.312
3.748,0.25,-0.312
3.752,0.25,-0.312
3.756,0.254,-0.32
3.76,0.254,-0.32
3.764,0.254,-0.328
3.768,0.254,-0.328
3.772,0.258,-0.336
3.776,0.254,-0.336
3.78,0.258,-0.304
3.784,0.254,-0.32
3.788,0.254,-0.32
3.792,0.254,-0.32
3.796,0.254,-0.328
3.8,0.25,-0.328
3.804,0.25,-0.328
3.808,0.25,-0.328
3.812,0.25,-0.32
3.816,0.25,-0.336
3.82,0.25,-0.328
3.824,0.242,-0.336
3.828,0.246,-0.32
3.832,0.246,-0.344
3.836,0.242,-0.32
3.84,0.242,-0.336
3.844,0.238,-0.336
3.848,0.238,-0.336
3.852,0.238,-0.328
3.856,0.234,-0.336
3.86,0.23,-0.32
3.864,0.226,-0.336
3.868,0.222,-0.32
3.872,0.222,-0.32
3.876,0.218,-0.312
3.88,0.214,-0.328
3.884,0.214,-0.312
3.888,0.206,-0.328
3.892,0.206,-0.312
3.896,0.206,-0.304
3.9,0.198,-0.304
3.904,0.198,-0.296
3.908,0.198,-0.304
3.912,0.194,-0.304
3.916,0.186,-0.296
3.92,0.186,-0.296
3.924,0.182,-0.28
3.928,0.178,-0.28
3.932,0.178,-0.28
3.936,0.166,-0.272
3.94,0.166,-0.272
3.944,0.162,-0.256
3.948,0.158,-0.256
3.952,0.15,-0.248
3.956,0.146,-0.248
3.96,0.146,-0.24
3.964,0.138,-0.24
3.968,0.134,-0.232
3.972,0.134,-0.224
3.976,0.13,-0.216
3.98,0.118,-0.208
3.984,0.118,-0.208
3.988,0.114,-0.192
3.992,0.11,-0.192
3.996,0.106,-0.192
4,0.098,-0.176
4.004,0.094,-0.176
4.008,0.09,-0.16
4.012,0.086,-0.16
4.016,0.078,-0.16
4.02,0.074,-0.144
4.024,0.07,-0.136
4.028,0.066,-0.136
4.032,0.062,-0.128
4.036,0.058,-0.12
4.04,0.05,-0.112
4.044,0.042,-0.112
4.048,0.038,-0.08800001
4.052,0.038,-0.096
4.056,0.03,-0.072
4.06,0.022,-0.08000001
4.064,0.018,-0.064
4.068,0.014,-0.056
4.072,0.01,-0.048
4.076,0.006,-0.04
4.08,-0.002,-0.032
4.084,-0.002,-0.032
4.088,-0.01,-0.016
4.092,-0.014,-0.016
4.096,-0.018,-0.008
4.1,-0.026,0
4.104,-0.034,0.008
4.108,-0.038,0.016
4.112,-0.038,0.032
4.116,-0.05,0.032
4.12,-0.05,0.04
4.124,-0.058,0.048
4.128,-0.062,0.056
4.132,-0.07,0.064
4.136,-0.07,0.072
4.14,-0.078,0.08000001
4.144,-0.082,0.08800001
4.148,-0.086,0.08800001
4.152,-0.086,0.104
4.156,-0.094,0.104
4.16,-0.102,0.112
4.164,-0.106,0.12
4.168,-0.11,0.128
4.172,-0.114,0.136
4.176,-0.118,0.144
4.18,-0.122,0.152
4.184,-0.126,0.16
4.188,-0.13,0.168
4.192,-0.13,0.176
4.196,-0.138,0.184
4.2,-0.146,0.192
4.204,-0.146,0.192
4.208,-0.154,0.2
4.212,-0.158,0.208
4.216,-0.158,0.208
4.22,-0.158,0.216
4.224,-0.166,0.216
4.228,-0.166,0.232
4.232,-0.174,0.232
4.236,-0.174,0.24
4.24,-0.178,0.24
4.244,-0.182,0.248
4.248,-0.186,0.256
4.252,-0.186,0.256
4.256,-0.19,0.272
4.26,-0.19,0.272
4.264,-0.194,0.272
4.268,-0.194,0.288
4.272,-0.198,0.288
4.276,-0.198,0.288
4.28,-0.202,0.288
4.284,-0.202,0.304
4.288,-0.206,0.304
4.292,-0.21,0.304
4.296,-0.206,0.312
4.3,-0.21,0.312
4.304,-0.21,0.32
4.308,-0.214,0.32
4.312,-0.214,0.328
4.316,-0.214,0.328
4.32,-0.218,0.328
4.324,-0.218,0.336
4.328,-0.218,0.328
4.332,-0.222,0.336
4.336,-0.222,0.336
4.34,-0.222,0.336
4.344,-0.218,0.344
4.348,-0.226,0.336
4.352,-0.226,0.344
4.356,-0.222,0.336
4.36,-0.222,0.344
4.364,-0.222,0.336
4.368,-0.222,0.344
4.372,-0.218,0.344
4.376,-0.218,0.344
4.38,-0.218,0.344
4.384,-0.218,0.344
4.388,-0.214,0.336
4.392,-0.218,0.344
4.396,-0.218,0.336
4.4,-0.214,0.336
4.404,-0.214,0.328
4.408,-0.21,0.336
4.412,-0.21,0.328
4.416,-0.214,0.328
4.42,-0.21,0.328
4.424,-0.206,0.312
4.428,-0.202,0.32
4.432,-0.206,0.312
4.436,-0.198,0.312
4.44,-0.198,0.312
4.444,-0.198,0.304
4.448,-0.194,0.304
4.452,-0.19,0.296
4.456,-0.19,0.296
4.46,-0.19,0.288
4.464,-0.186,0.288
4.468,-0.186,0.28
4.472,-0.182,0.28
4.476,-0.178,0.28
4.48,-0.178,0.264
4.484,-0.17,0.256
4.488,-0.166,0.272
4.492,-0.166,0.256
4.496,-0.162,0.248
4.5,-0.158,0.232
4.504,-0.154,0.24
4.508,-0.154,0.232
4.512,-0.154,0.224
4.516,-0.146,0.216
4.52,-0.142,0.216
4.524,-0.138,0.2
4.528,-0.134,0.2
4.532,-0.126,0.192
4.536,-0.126,0.192
4.54,-0.118,0.176
4.544,-0.114,0.176
4.548,-0.114,0.16
4.552,-0.106,0.16
4.556,-0.102,0.152
4.56,-0.098,0.144
4.564,-0.094,0.136
4.568,-0.09,0.128
4.572,-0.082,0.112
4.576,-0.078,0.112
4.58,-0.074,0.104
4.584,-0.07,0.096
4.588,-0.066,0.08800001
4.592,-0.062,0.08000001
4.596,-0.058,0.072
4.6,-0.05,0.072
4.604,-0.046,0.056
4.608,-0.042,0.048
4.612,-0.038,0.048
4.616,-0.03,0.032
4.62,-0.026,0.024
4.624,-0.018,0.016
4.628,-0.018,0.016
4.632,-0.01,0.008
4.636,-0.01,-0.008
4.64,0.002,-0.016
4.644,0.002,-0.024
4.648,0.01,-0.032
4.652,0.014,-0.04
4.656,0.014,-0.048
4.66,0.026,-0.064
4.664,0.03,-0.064
4.668,0.038,-0.072
4.672,0.042,-0.08000001
4.676,0.046,-0.08800001
4.68,0.05,-0.096
4.684,0.054,-0.104
4.688,0.058,-0.104
4.692,0.062,-0.128
4.696,0.07,-0.128
4.7,0.07,-0.128
4.704,0.074,-0.144
4.708,0.078,-0.152
4.712,0.082,-0.168
4.716,0.086,-0.16
4.72,0.094,-0.168
4.724,0.098,-0.176
4.728,0.102,-0.184
4.732,0.11,-0.192
4.736,0.114,-0.192
4.74,0.118,-0.208
4.744,0.122,-0.216
4.748,0.126,-0.216
4.752,0.13,-0.224
4.756,0.134,-0.232
4.76,0.134,-0.24
4.764,0.138,-0.248
4.768,0.146,-0.248
4.772,0.15,-0.256
4.776,0.154,-0.264
4.78,0.154,-0.272
4.784,0.158,-0.272
4.788,0.162,-0.272
4.792,0.17,-0.28
4.796,0.174,-0.28
4.8,0.178,-0.288
4.804,0.178,-0.296
4.808,0.182,-0.296
4.812,0.186,-0.296
4.816,0.19,-0.304
4.82,0.194,-0.312
4.824,0.198,-0.312
4.828,0.198,-0.312
4.832,0.202,-0.32
4.836,0.202,-0.328
4.84,0.206,-0.32
4.844,0.206,-0.328
4.848,0.21,-0.304
4.852,0.21,-0.328
4.856,0.214,-0.32
4.86,0.218,-0.32
4.864,0.222,-0.32
4.868,0.218,-0.328
4.872,0.226,-0.32
4.876,0.226,-0.336
4.88,0.226,-0.32
4.884,0.23,-0.336
4.888,0.23,-0.32
4.892,0.234,-0.336
4.896,0.23,-0.328
4.9,0.234,-0.336
4.904,0.234,-0.328
4.908,0.234,-0.328
4.912,0.234,-0.336
4.916,0.238,-0.32
4.92,0.238,-0.328
4.924,0.238,-0.336
4.928,0.238,-0.328
4.932,0.238,-0.328
4.936,0.238,-0.32
4.94,0.242,-0.328
4.944,0.242,-0.32
4.948,0.242,-0.312
4.952,0.238,-0.328
4.956,0.238,-0.312
4.96,0.242,-0.32
4.964,0.242,-0.312
4.968,0.238,-0.32
4.972,0.238,-0.304
4.976,0.238,-0.304
4.98,0.234,-0.296
4.984,0.234,-0.288
4.988,0.234,-0.296
4.992,0.23,-0.296
4.996,0.234,-0.28
5,0.226,-0.288
5.004,0.226,-0.264
5.008,0.226,-0.28
5.012,0.226,-0.256
5.016,0.222,-0.264
5.02,0.218,-0.256
5.024,0.218,-0.256
5.028,0.214,-0.24
5.032,0.214,-0.24
5.036,0.214,-0.24
5.04,0.206,-0.232
5.044,0.206,-0.232
5.048,0.206,-0.224
5.052,0.202,-0.208
5.056,0.198,-0.208
5.06,0.198,-0.192
5.064,0.194,-0.208
5.068,0.19,-0.184
5.072,0.186,-0.184
5.076,0.182,-0.168
5.08,0.178,-0.176
5.084,0.178,-0.168
5.088,0.17,-0.16
5.092,0.166,-0.16
5.096,0.166,-0.152
5.1,0.162,-0.144
5.104,0.158,-0.136
5.108,0.15,-0.128
5.112,0.15,-0.12
5.116,0.142,-0.112
5.12,0.138,-0.112
5.124,0.134,-0.096
5.128,0.13,-0.096
5.132,0.126,-0.08000001
5.136,0.122,-0.072
5.14,0.118,-0.072
5.144,0.114,-0.056
5.148,0.106,-0.048
5.152,0.102,-0.048
5.156,0.094,-0.04
5.16,0.094,-0.032
5.164,0.086,-0.024
5.168,0.082,-0.016
5.172,0.074,-0.008
5.176,0.074,-0.008
5.18,0.07,0
5.184,0.066,0.008
5.188,0.062,0.016
5.192,0.05,0.024
5.196,0.046,0.04
5.2,0.046,0.04
5.204,0.038,0.048
5.208,0.034,0.056
5.212,0.022,0.064
5.216,0.022,0.072
5.22,0.014,0.08000001
5.224,0.01,0.08000001
5.228,0.002,0.096
5.232,-0.002,0.104
5.236,-0.01,0.096
5.24,-0.01,0.112
5.244,-0.022,0.112
5.248,-0.026,0.12
5.252,-0.03,0.128
5.256,-0.038,0.136
5.26,-0.042,0.144
5.264,-0.05,0.144
5.268,-0.054,0.168
5.272,-0.058,0.16
5.276,-0.066,0.168
5.28,-0.07,0.176
5.284,-0.074,0.176
5.288,-0.082,0.192
5.292,-0.086,0.192
5.296,-0.094,0.2
5.3,-0.098,0.208
5.304,-0.106,0.216
5.308,-0.106,0.216
5.312,-0.114,0.224
5.316,-0.122,0.232
5.32,-0.126,0.224
5.324,-0.134,0.232
5.328,-0.138,0.24
5.332,-0.142,0.248
5.336,-0.15,0.248
5.34,-0.154,0.248
5.344,-0.158,0.256
5.348,-0.162,0.256
5.352,-0.166,0.264
5.356,-0.174,0.272
5.36,-0.178,0.272
5.364,-0.186,0.28
5.368,-0.182,0.272
5.372,-0.186,0.288
5.376,-0.194,0.288
5.38,-0.194,0.288
5.384,-0.198,0.296
5.388,-0.202,0.288
5.392,-0.206,0.304
5.396,-0.214,0.296
5.4,-0.214,0.304
5.404,-0.218,0.304
5.408,-0.222,0.304
5.412,-0.226,0.304
5.416,-0.23,0.304
5.42,-0.234,0.312
5.424,-0.234,0.312
5.428,-0.234,0.312
5.432,-0.242,0.312
5.436,-0.246,0.312
5.44,-0.25,0.312
5.444,-0.25,0.312
5.448,-0.25,0.312
5.452,-0.254,0.32
5.456,-0.254,0.312
5.46,-0.258,0.304
5.464,-0.258,0.312
5.468,-0.262,0.312
5.472,-0.266,0.312
5.476,-0.262,0.312
5.48,-0.262,0.304
5.484,-0.266,0.296
5.488,-0.266,0.296
5.492,-0.266,0.304
5.496,-0.266,0.296
5.5,-0.27,0.296
5.504,-0.27,0.288
5.508,-0.266,0.296
5.512,-0.27,0.288
5.516,-0.27,0.288
5.52,-0.266,0.288
5.524,-0.27,0.28
5.528,-0.266,0.28
5.532,-0.266,0.264
5.536,-0.262,0.272
5.54,-0.266,0.264
5.544,-0.262,0.256
5.548,-0.262,0.256
5.552,-0.262,0.248
5.556,-0.254,0.248
5.56,-0.258,0.248
5.564,-0.254,0.24
5.568,-0.254,0.232
5.572,-0.246,0.232
5.576,-0.246,0.232
5.58,-0.242,0.216
5.584,-0.238,0.216
5.588,-0.238,0.216
5.592,-0.23,0.208
5.596,-0.23,0.208
5.6,-0.23,0.2
5.604,-0.222,0.192
5.608,-0.218,0.176
5.612,-0.218,0.176
5.616,-0.214,0.176
5.62,-0.21,0.168
5.624,-0.206,0.16
5.628,-0.202,0.152
5.632,-0.198,0.152
5.636,-0.194,0.144
5.64,-0.19,0.128
5.644,-0.186,0.12
5.648,-0.182,0.112
5.652,-0.178,0.112
5.656,-0.174,0.104
5.66,-0.17,0.096
5.664,-0.162,0.096
5.668,-0.158,0.08800001
5.672,-0.154,0.08800001
5.676,-0.146,0.072
5.68,-0.142,0.072
5.684,-0.138,0.064
5.688,-0.13,0.056
5.692,-0.122,0.048
5.696,-0.118,0.04
5.7,-0.114,0.04
5.704,-0.106,0.024
5.708,-0.098,0.024
5.712,-0.094,0.008
5.716,-0.09,0
5.72,-0.082,-0.008
5.724,-0.074,-0.008
5.728,-0.07,-0.016
5.732,-0.058,-0.024
5.736,-0.058,-0.032
5.74,-0.05,-0.04
5.744,-0.046,-0.048
5.748,-0.038,-0.048
5.752,-0.03,-0.064
5.756,-0.022,-0.064
5.76,-0.018,-0.072
5.764,-0.014,-0.08000001
5.768,-0.006,-0.08000001
5.772,0.006,-0.096
5.776,0.01,-0.096
5.78,0.022,-0.112
5.784,0.022,-0.112
5.788,0.03,-0.12
5.792,0.034,-0.128
5.796,0.046,-0.128
5.8,0.054,-0.136
5.804,0.058,-0.144
5.808,0.066,-0.152
5.812,0.07,-0.152
5.816,0.074,-0.16
5.82,0.082,-0.168
5.824,0.086,-0.168
5.828,0.094,-0.184
5.832,0.098,-0.176
5.836,0.106,-0.184
5.84,0.11,-0.192
5.844,0.118,-0.2
5.848,0.126,-0.2
5.852,0.134,-0.208
5.856,0.134,-0.216
5.86,0.138,-0.216
5.864,0.15,-0.216
5.868,0.154,-0.224
5.872,0.162,-0.232
5.876,0.17,-0.232
5.88,0.174,-0.24
5.884,0.182,-0.24
5.888,0.186,-0.248
5.892,0.19,-0.248
5.896,0.194,-0.256
5.9,0.202,-0.256
5.904,0.206,-0.264
5.908,0.21,-0.264
5.912,0.214,-0.264
5.916,0.218,-0.272
5.92,0.222,-0.272
5.924,0.23,-0.272
5.928,0.234,-0.28
5.932,0.238,-0.28
5.936,0.238,-0.288
5.94,0.246,-0.28
5.944,0.25,-0.288
5.948,0.25,-0.288
5.952,0.258,-0.288
5.956,0.262,-0.296
5.96,0.262,-0.288
5.964,0.266,-0.288
5.968,0.27,-0.288
5.972,0.27,-0.296
5.976,0.274,-0.296
5.98,0.278,-0.296
5.984,0.282,-0.296
5.988,0.282,-0.288
5.992,0.286,-0.296
5.996,0.286,-0.296
6,0.286,-0.296
6.004,0.294,-0.288
6.008,0.29,-0.296
6.012,0.29,-0.296
6.016,0.294,-0.288
6.02,0.294,-0.296
6.024,0.298,-0.288
6.028,0.298,-0.288
6.032,0.298,-0.288
6.036,0.302,-0.288
6.04,0.298,-0.288
6.044,0.302,-0.28
6.048,0.298,-0.28
6.052,0.302,-0.28
6.056,0.306,-0.272
6.06,0.298,-0.272
6.064,0.298,-0.272
6.068,0.302,-0.272
6.072,0.298,-0.272
6.076,0.298,-0.264
6.08,0.294,-0.264
6.084,0.294,-0.256
6.088,0.294,-0.256
6.092,0.294,-0.256
6.096,0.29,-0.248
6.1,0.29,-0.248
6.104,0.286,-0.248
6.108,0.286,-0.232
6.112,0.282,-0.232
6.116,0.278,-0.224
6.12,0.278,-0.224
6.124,0.274,-0.224
6.128,0.274,-0.216
6.132,0.274,-0.208
6.136,0.266,-0.2
6.14,0.266,-0.2
6.144,0.258,-0.2
6.148,0.258,-0.2
6.152,0.254,-0.192
6.156,0.25,-0.184
6.16,0.246,-0.176
6.164,0.242,-0.176
6.168,0.234,-0.168
6.172,0.234,-0.168
6.176,0.23,-0.16
6.18,0.222,-0.152
6.184,0.222,-0.144
6.188,0.214,-0.144
6.192,0.206,-0.136
6.196,0.202,-0.12
6.2,0.198,-0.12
6.204,0.194,-0.112
6.208,0.19,-0.112
6.212,0.182,-0.104
6.216,0.178,-0.096
6.22,0.17,-0.08800001
6.224,0.166,-0.08800001
6.228,0.162,-0.072
6.232,0.154,-0.072
6.236,0.15,-0.064
6.24,0.142,-0.056
6.244,0.134,-0.056
6.248,0.13,-0.048
6.252,0.122,-0.04
6.256,0.114,-0.032
6.26,0.11,-0.024
6.264,0.106,-0.016
6.268,0.094,-0.016
6.272,0.086,-0.016
6.276,0.078,0
6.28,0.074,0.008
6.284,0.07,0.016
6.288,0.058,0.016
6.292,0.054,0.032
6.296,0.05,0.032
6.3,0.038,0.04
6.304,0.03,0.04
6.308,0.022,0.048
6.312,0.018,0.056
6.316,0.014,0.064
6.32,0.002,0.072
6.324,-0.006,0.072
6.328,-0.01,0.08000001
6.332,-0.022,0.096
6.336,-0.03,0.08800001
6.34,-0.034,0.096
6.344,-0.046,0.096
6.348,-0.054,0.104
6.352,-0.054,0.112
6.356,-0.066,0.112
6.36,-0.07,0.12
6.364,-0.082,0.136
6.368,-0.09,0.136
6.372,-0.094,0.144
6.376,-0.102,0.144
6.38,-0.11,0.152
6.384,-0.118,0.152
6.388,-0.126,0.16
6.392,-0.134,0.168
6.396,-0.138,0.168
6.4,-0.146,0.176
6.404,-0.154,0.184
6.408,-0.158,0.184
6.412,-0.17,0.184
6.416,-0.174,0.192
6.42,-0.174,0.2
6.424,-0.186,0.2
6.428,-0.19,0.2
6.432,-0.194,0.208
6.436,-0.202,0.216
6.44,-0.21,0.216
6.444,-0.214,0.216
6.448,-0.214,0.216
6.452,-0.23,0.224
6.456,-0.234,0.224
6.46,-0.238,0.232
6.464,-0.242,0.232
6.468,-0.25,0.224
6.472,-0.254,0.24
6.476,-0.258,0.24
6.48,-0.262,0.24
6.484,-0.27,0.248
6.488,-0.274,0.24
6.492,-0.278,0.248
6.496,-0.286,0.248
6.5,-0.29,0.24
6.504,-0.29,0.248
6.508,-0.29,0.256
6.512,-0.294,0.256
6.516,-0.302,0.264
6.52,-0.31,0.264
6.524,-0.306,0.256
6.528,-0.31,0.256
6.532,-0.314,0.256
6.536,-0.314,0.264
6.54,-0.314,0.264
6.544,-0.318,0.264
6.548,-0.318,0.264
6.552,-0.322,0.264
6.556,-0.322,0.264
6.56,-0.326,0.264
6.564,-0.33,0.264
6.568,-0.33,0.264
6.572,-0.33,0.256
6.576,-0.33,0.264
6.58,-0.33,0.264
6.584,-0.33,0.256
6.588,-0.326,0.256
6.592,-0.33,0.256
6.596,-0.33,0.256
6.6,-0.326,0.256
6.604,-0.326,0.256
6.608,-0.326,0.248
6.612,-0.322,0.248
6.616,-0.326,0.248
6.62,-0.322,0.24
6.624,-0.318,0.24
6.628,-0.318,0.232
6.632,-0.318,0.24
6.636,-0.314,0.232
6.64,-0.31,0.224
6.644,-0.31,0.224
6.648,-0.306,0.224
6.652,-0.302,0.224
6.656,-0.298,0.224
6.66,-0.294,0.216
6.664,-0.294,0.216
6.668,-0.29,0.216
6.672,-0.282,0.2
6.676,-0.282,0.2
6.68,-0.274,0.192
6.684,-0.27,0.192
6.688,-0.266,0.192
6.692,-0.262,0.184
6.696,-0.254,0.176
6.7,-0.25,0.176
6.704,-0.246,0.176
6.708,-0.238,0.168
6.712,-0.234,0.16
6.716,-0.23,0.168
6.72,-0.222,0.16
6.724,-0.218,0.152
6.728,-0.21,0.136
6.732,-0.206,0.144
6.736,-0.198,0.136
6.74,-0.19,0.136
6.744,-0.186,0.128
6.748,-0.186,0.12
6.752,-0.174,0.112
6.756,-0.17,0.112
6.76,-0.158,0.104
6.764,-0.15,0.104
6.768,-0.146,0.096
6.772,-0.138,0.096
6.776,-0.126,0.08800001
6.78,-0.126,0.08000001
6.784,-0.122,0.08000001
6.788,-0.106,0.072
6.792,-0.102,0.064
6.796,-0.094,0.056
6.8,-0.086,0.064
6.804,-0.078,0.048
6.808,-0.07,0.04
6.812,-0.062,0.032
6.816,-0.054,0.032
6.82,-0.046,0.024
6.824,-0.038,0.016
6.828,-0.034,0.016
6.832,-0.026,0
6.836,-0.014,0
6.84,-0.01,-0.008
6.844,0.002,-0.008
6.848,0.006,-0.016
6.852,0.014,-0.016
6.856,0.022,-0.032
6.86,0.034,-0.032
6.864,0.042,-0.032
6.868,0.046,-0.048
6.872,0.058,-0.048
6.876,0.062,-0.056
6.88,0.07,-0.056
6.884,0.078,-0.064
6.888,0.086,-0.072
6.892,0.094,-0.072
6.896,0.102,-0.08800001
6.9,0.106,-0.08800001
6.904,0.114,-0.096
6.908,0.122,-0.096
6.912,0.13,-0.104
6.916,0.138,-0.112
6.92,0.142,-0.112
6.924,0.15,-0.12
6.928,0.158,-0.128
6.932,0.166,-0.128
6.936,0.17,-0.128
6.94,0.178,-0.144
6.944,0.182,-0.152
6.948,0.194,-0.152
6.952,0.198,-0.152
6.956,0.202,-0.16
6.96,0.21,-0.16
6.964,0.21,-0.168
6.968,0.218,-0.168
6.972,0.226,-0.176
6.976,0.23,-0.184
6.98,0.234,-0.184
6.984,0.242,-0.184
6.988,0.246,-0.2
6.992,0.254,-0.192
6.996,0.258,-0.2
7,0.262,-0.208
7.004,0.266,-0.208
7.008,0.27,-0.216
7.012,0.274,-0.216
7.016,0.278,-0.224
7.02,0.278,-0.224
7.024,0.286,-0.224
7.028,0.286,-0.224
7.032,0.294,-0.224
7.036,0.294,-0.232
7.04,0.298,-0.24
7.044,0.302,-0.248
7.048,0.302,-0.24
7.052,0.31,-0.24
7.056,0.31,-0.248
7.06,0.31,-0.248
7.064,0.314,-0.248
7.068,0.314,-0.248
7.072,0.318,-0.256
7.076,0.318,-0.256
7.08,0.318,-0.256
7.084,0.322,-0.256
7.088,0.318,-0.256
7.092,0.322,-0.264
7.096,0.322,-0.264
7.1,0.322,-0.264
7.104,0.322,-0.264
7.108,0.322,-0.264
7.112,0.322,-0.264
7.116,0.322,-0.264
7.12,0.322,-0.272
7.124,0.322,-0.264
7.128,0.322,-0.272
7.132,0.322,-0.272
7.136,0.322,-0.272
7.14,0.322,-0.264
7.144,0.322,-0.264
7.148,0.318,-0.264
7.152,0.318,-0.264
7.156,0.314,-0.264
7.16,0.314,-0.256
7.164,0.31,-0.256
7.168,0.31,-0.256
7.172,0.306,-0.264
7.176,0.306,-0.256
7.18,0.302,-0.256
7.184,0.302,-0.256
7.188,0.298,-0.256
7.192,0.294,-0.248
7.196,0.29,-0.248
7.2,0.286,-0.24
7.204,0.286,-0.24
7.208,0.278,-0.232
7.212,0.274,-0.232
7.216,0.274,-0.232
7.22,0.27,-0.232
7.224,0.266,-0.224
7.228,0.262,-0.224
7.232,0.258,-0.224
7.236,0.25,-0.216
7.24,0.242,-0.216
7.244,0.242,-0.208
7.248,0.234,-0.208
7.252,0.23,-0.2
7.256,0.23,-0.2
7.26,0.218,-0.192
7.264,0.214,-0.192
7.268,0.206,-0.184
7.272,0.202,-0.184
7.276,0.198,-0.176
7.28,0.19,-0.176
7.284,0.186,-0.168
7.288,0.178,-0.168
7.292,0.17,-0.16
7.296,0.162,-0.152
7.3,0.158,-0.16
7.304,0.154,-0.152
7.308,0.15,-0.152
7.312,0.134,-0.136
7.316,0.13,-0.128
7.32,0.122,-0.128
7.324,0.118,-0.12
7.328,0.11,-0.112
7.332,0.102,-0.112
7.336,0.094,-0.104
7.34,0.086,-0.104
7.344,0.082,-0.096
7.348,0.074,-0.08800001
7.352,0.066,-0.08000001
7.356,0.062,-0.072
7.36,0.054,-0.064
7.364,0.042,-0.064
7.368,0.038,-0.056
7.372,0.03,-0.056
7.376,0.022,-0.048
7.38,0.014,-0.04
7.384,0.006,-0.032
7.388,-0.002,-0.024
7.392,-0.01,-0.024
7.396,-0.018,-0.016
7.4,-0.026,-0.016
7.404,-0.034,0
7.408,-0.042,0
7.412,-0.046,0.008
7.416,-0.058,0.008
7.42,-0.062,0.016
7.424,-0.07,0.032
7.428,-0.078,0.024
7.432,-0.082,0.04
7.436,-0.094,0.04
7.44,-0.102,0.048
7.444,-0.11,0.064
7.448,-0.118,0.064
7.452,-0.126,0.072
7.456,-0.13,0.08000001
7.46,-0.138,0.08000001
7.464,-0.146,0.08000001
7.468,-0.154,0.08800001
7.472,-0.158,0.096
7.476,-0.166,0.096
7.48,-0.174,0.096
7.484,-0.182,0.112
7.488,-0.186,0.112
7.492,-0.19,0.12
7.496,-0.194,0.12
7.5,-0.198,0.128
7.504,-0.21,0.136
7.508,-0.214,0.136
7.512,-0.218,0.144
7.516,-0.222,0.152
7.52,-0.23,0.16
7.524,-0.234,0.168
7.528,-0.242,0.168
7.532,-0.242,0.176
7.536,-0.25,0.176
7.54,-0.254,0.176
7.544,-0.258,0.184
7.548,-0.266,0.184
7.552,-0.27,0.184
7.556,-0.274,0.192
7.56,-0.278,0.2
7.564,-0.282,0.2
7.568,-0.282,0.208
7.572,-0.286,0.216
7.576,-0.294,0.216
7.58,-0.294,0.216
7.584,-0.298,0.216
7.588,-0.302,0.224
7.592,-0.306,0.232
7.596,-0.302,0.232
7.6,-0.306,0.232
7.604,-0.31,0.24
7.608,-0.314,0.232
7.612,-0.314,0.24
7.616,-0.318,0.24
7.62,-0.314,0.24
7.624,-0.314,0.248
7.628,-0.318,0.248
7.632,-0.322,0.256
7.636,-0.318,0.264
7.64,-0.318,0.264
7.644,-0.318,0.256
7.648,-0.318,0.256
7.652,-0.318,0.264
7.656,-0.318,0.264
7.66,-0.318,0.264
7.664,-0.318,0.264
7.668,-0.314,0.264
7.672,-0.314,0.264
7.676,-0.314,0.264
7.68,-0.314,0.264
7.684,-0.31,0.272
7.688,-0.306,0.264
7.692,-0.306,0.272
7.696,-0.306,0.264
7.7,-0.298,0.272
7.704,-0.298,0.272
7.708,-0.294,0.264
7.712,-0.29,0.272
7.716,-0.29,0.264
7.72,-0.286,0.264
7.724,-0.278,0.264
7.728,-0.278,0.264
7.732,-0.278,0.264
7.736,-0.27,0.264
7.74,-0.266,0.256
7.744,-0.258,0.256
7.748,-0.258,0.256
7.752,-0.25,0.256
7.756,-0.25,0.248
7.76,-0.242,0.24
7.764,-0.238,0.24
7.768,-0.234,0.24
7.772,-0.226,0.24
7.776,-0.222,0.24
7.78,-0.214,0.24
7.784,-0.21,0.232
7.788,-0.206,0.232
7.792,-0.198,0.224
7.796,-0.19,0.224
7.8,-0.19,0.216
7.804,-0.186,0.216
7.808,-0.178,0.208
7.812,-0.17,0.216
7.816,-0.166,0.208
7.82,-0.158,0.208
7.824,-0.15,0.2
7.828,-0.146,0.192
7.832,-0.134,0.192
7.836,-0.13,0.184
7.84,-0.126,0.184
7.844,-0.122,0.176
7.848,-0.114,0.168
7.852,-0.106,0.168
7.856,-0.098,0.168
7.86,-0.094,0.152
7.864,-0.082,0.152
7.868,-0.074,0.152
7.872,-0.066,0.136
7.876,-0.062,0.128
7.88,-0.054,0.128
7.884,-0.042,0.12
7.888,-0.038,0.112
7.892,-0.034,0.12
7.896,-0.022,0.104
7.9,-0.014,0.096
7.904,-0.01,0.096
7.908,-0.002,0.096
7.912,0.006,0.08800001
7.916,0.014,0.08800001
7.92,0.018,0.08000001
7.924,0.03,0.072
7.928,0.03,0.056
7.932,0.042,0.064
7.936,0.05,0.048
7.94,0.058,0.048
7.944,0.062,0.04
7.948,0.07,0.032
7.952,0.074,0.024
7.956,0.082,0.016
7.96,0.086,0.016
7.964,0.09,0.008
7.968,0.098,0.008
7.972,0.11,0
7.976,0.114,-0.008
7.98,0.118,-0.024
7.984,0.126,-0.024
7.988,0.13,-0.032
7.992,0.138,-0.048
7.996,0.146,-0.048
8,0.15,-0.056
8.004,0.158,-0.056
8.008,0.162,-0.064
8.012,0.17,-0.072
8.016,0.174,-0.08000001
8.02,0.178,-0.08800001
8.024,0.19,-0.08800001
8.028,0.19,-0.104
8.032,0.198,-0.104
8.036,0.198,-0.112
8.04,0.206,-0.12
8.044,0.21,-0.128
8.048,0.214,-0.136
8.052,0.218,-0.144
8.056,0.222,-0.136
8.06,0.226,-0.152
8.064,0.23,-0.152
8.068,0.234,-0.16
8.072,0.238,-0.168
8.076,0.238,-0.168
8.08,0.246,-0.168
8.084,0.25,-0.184
8.088,0.254,-0.176
8.092,0.258,-0.192
8.096,0.258,-0.192
8.1,0.262,-0.208
8.104,0.262,-0.208
8.108,0.27,-0.208
8.112,0.266,-0.224
8.116,0.27,-0.216
8.12,0.278,-0.224
8.124,0.278,-0.232
8.128,0.278,-0.24
8.132,0.274,-0.248
8.136,0.282,-0.24
8.14,0.278,-0.248
8.144,0.282,-0.248
8.148,0.282,-0.256
8.152,0.286,-0.264
8.156,0.286,-0.264
8.16,0.286,-0.272
8.164,0.286,-0.272
8.168,0.286,-0.272
8.172,0.286,-0.28
8.176,0.286,-0.288
8.18,0.286,-0.28
8.184,0.286,-0.28
8.188,0.286,-0.28
8.192,0.29,-0.296
8.196,0.286,-0.296
8.2,0.282,-0.288
8.204,0.286,-0.296
8.208,0.282,-0.296
8.212,0.282,-0.296
8.216,0.282,-0.296
8.22,0.278,-0.304
8.224,0.278,-0.296
8.228,0.274,-0.296
8.232,0.274,-0.296
8.236,0.27,-0.304
8.24,0.266,-0.304
8.244,0.27,-0.304
8.248,0.266,-0.304
8.252,0.262,-0.296
8.256,0.262,-0.304
8.26,0.258,-0.296
8.264,0.254,-0.296
8.268,0.25,-0.296
8.272,0.254,-0.296
8.276,0.246,-0.296
8.28,0.246,-0.296
8.284,0.242,-0.296
8.288,0.234,-0.296
8.292,0.234,-0.296
8.296,0.234,-0.288
8.3,0.226,-0.288
8.304,0.222,-0.288
8.308,0.218,-0.28
8.312,0.214,-0.28
8.316,0.206,-0.28
8.32,0.202,-0.272
8.324,0.202,-0.28
8.328,0.194,-0.272
8.332,0.19,-0.272
8.336,0.186,-0.264
8.34,0.182,-0.256
8.344,0.178,-0.264
8.348,0.174,-0.256
8.352,0.166,-0.248
8.356,0.162,-0.256
8.36,0.154,-0.248
8.364,0.15,-0.24
8.368,0.146,-0.24
8.372,0.138,-0.232
8.376,0.134,-0.224
8.38,0.13,-0.216
8.384,0.122,-0.208
8.388,0.118,-0.2
8.392,0.11,-0.2
8.396,0.106,-0.2
8.4,0.094,-0.192
8.404,0.094,-0.192
8.408,0.086,-0.184
8.412,0.086,-0.176
8.416,0.074,-0.168
8.42,0.074,-0.168
8.424,0.066,-0.16
8.428,0.062,-0.152
8.432,0.054,-0.144
8.436,0.046,-0.136
8.44,0.042,-0.128
8.444,0.038,-0.128
8.448,0.03,-0.128
8.452,0.022,-0.12
8.456,0.014,-0.104
8.46,0.01,-0.104
8.464,0.006,-0.08800001
8.468,-0.002,-0.08800001
8.472,-0.01,-0.08000001
8.476,-0.01,-0.072
8.48,-0.022,-0.064
8.484,-0.03,-0.064
8.488,-0.034,-0.056
8.492,-0.042,-0.04
8.496,-0.046,-0.04
8.5,-0.05,-0.032
8.504,-0.058,-0.016
8.508,-0.062,-0.016
8.512,-0.066,-0.008
8.516,-0.074,0
8.52,-0.078,0.008
8.524,-0.086,0.016
8.528,-0.09,0.024
8.532,-0.098,0.024
8.536,-0.106,0.032
8.54,-0.106,0.048
8.544,-0.114,0.056
8.548,-0.122,0.056
8.552,-0.126,0.064
8.556,-0.13,0.064
8.56,-0.134,0.08000001
8.564,-0.138,0.08800001
8.568,-0.142,0.096
8.572,-0.154,0.096
8.576,-0.158,0.104
8.58,-0.162,0.112
8.584,-0.166,0.112
8.588,-0.17,0.128
8.592,-0.174,0.128
8.596,-0.178,0.136
8.6,-0.182,0.136
8.604,-0.186,0.152
8.608,-0.19,0.152
8.612,-0.19,0.16
8.616,-0.194,0.168
8.62,-0.198,0.176
8.624,-0.202,0.184
8.628,-0.206,0.184
8.632,-0.206,0.192
8.636,-0.21,0.2
8.64,-0.214,0.2
8.644,-0.218,0.216
8.648,-0.222,0.216
8.652,-0.226,0.216
8.656,-0.226,0.224
8.66,-0.226,0.232
8.664,-0.226,0.232
8.668,-0.23,0.24
8.672,-0.234,0.24
8.676,-0.234,0.248
8.68,-0.238,0.256
8.684,-0.242,0.256
8.688,-0.242,0.264
8.692,-0.242,0.264
8.696,-0.242,0.272
8.7,-0.246,0.28
8.704,-0.242,0.28
8.708,-0.246,0.28
8.712,-0.246,0.288
8.716,-0.25,0.288
8.72,-0.25,0.288
8.724,-0.25,0.288
8.728,-0.246,0.296
8.732,-0.246,0.296
8.736,-0.246,0.296
8.74,-0.246,0.304
8.744,-0.246,0.312
8.748,-0.246,0.312
8.752,-0.242,0.312
8.756,-0.246,0.312
8.76,-0.246,0.312
8.764,-0.238,0.312
8.768,-0.242,0.32
8.772,-0.242,0.32
8.776,-0.242,0.312
8.78,-0.238,0.312
8.784,-0.234,0.312
8.788,-0.234,0.312
8.792,-0.23,0.32
8.796,-0.23,0.312
8.8,-0.226,0.312
8.804,-0.226,0.312
8.808,-0.218,0.312
8.812,-0.218,0.312
8.816,-0.218,0.312
8.82,-0.21,0.312
8.824,-0.21,0.304
8.828,-0.206,0.304
8.832,-0.206,0.304
8.836,-0.202,0.304
8.84,-0.198,0.304
8.844,-0.19,0.304
8.848,-0.19,0.304
8.852,-0.186,0.296
8.856,-0.186,0.296
8.86,-0.182,0.288
8.864,-0.178,0.288
8.868,-0.178,0.28
8.872,-0.17,0.28
8.876,-0.162,0.272
8.88,-0.162,0.272
8.884,-0.158,0.272
8.888,-0.158,0.264
8.892,-0.15,0.264
8.896,-0.146,0.256
8.9,-0.142,0.256
8.904,-0.134,0.24
8.908,-0.13,0.24
8.912,-0.126,0.24
8.916,-0.122,0.232
8.92,-0.118,0.24
8.924,-0.11,0.224
8.928,-0.106,0.216
8.932,-0.102,0.224
8.936,-0.094,0.208
8.94,-0.09,0.208
8.944,-0.086,0.2
8.948,-0.078,0.192
8.952,-0.074,0.184
8.956,-0.07,0.184
8.96,-0.062,0.168
8.964,-0.058,0.168
8.968,-0.054,0.16
8.972,-0.05,0.16
8.976,-0.042,0.144
8.98,-0.038,0.144
8.984,-0.03,0.136
8.988,-0.03,0.128
8.992,-0.022,0.12
8.996,-0.018,0.112
9,-0.01,0.104
9.004,-0.006,0.096
9.008,-0.002,0.096
9.012,0.006,0.08800001
9.016,0.01,0.08000001
9.02,0.014,0.08000001
9.024,0.018,0.072
9.028,0.022,0.056
9.032,0.03,0.056
9.036,0.038,0.04
9.04,0.042,0.032
9.044,0.05,0.032
9.048,0.05,0.024
9.052,0.054,0.008
9.056,0.062,0.008
9.06,0.066,0.008
9.064,0.07,-0.008
9.068,0.07,-0.016
9.072,0.078,-0.024
9.076,0.082,-0.032
9.08,0.086,-0.04
9.084,0.094,-0.048
9.088,0.098,-0.056
9.092,0.102,-0.064
9.096,0.106,-0.072
9.1,0.11,-0.08000001
9.104,0.114,-0.08800001
9.108,0.118,-0.104
9.112,0.122,-0.104
9.116,0.13,-0.104
9.12,0.13,-0.12
9.124,0.134,-0.128
9.128,0.138,-0.136
9.132,0.142,-0.136
9.136,0.146,-0.144
9.14,0.15,-0.152
9.144,0.154,-0.16
9.148,0.158,-0.168
9.152,0.166,-0.176
9.156,0.17,-0.176
9.16,0.17,-0.184
9.164,0.174,-0.192
9.168,0.178,-0.2
9.172,0.178,-0.208
9.176,0.178,-0.216
9.18,0.182,-0.216
9.184,0.19,-0.224
9.188,0.19,-0.232
9.192,0.194,-0.24
9.196,0.194,-0.248
9.2,0.198,-0.248
9.204,0.198,-0.256
9.208,0.202,-0.264
9.212,0.198,-0.264
9.216,0.206,-0.272
9.22,0.206,-0.272
9.224,0.21,-0.28
9.228,0.21,-0.28
9.232,0.214,-0.288
9.236,0.214,-0.288
9.24,0.218,-0.296
9.244,0.222,-0.296
9.248,0.218,-0.304
9.252,0.222,-0.304
9.256,0.222,-0.312
9.26,0.222,-0.312
9.264,0.226,-0.312
9.268,0.222,-0.312
9.272,0.226,-0.32
9.276,0.226,-0.32
9.28,0.226,-0.328
9.284,0.226,-0.32
9.288,0.226,-0.328
9.292,0.226,-0.32
9.296,0.226,-0.32
9.3,0.226,-0.312
9.304,0.226,-0.32
9.308,0.226,-0.32
9.312,0.226,-0.32
9.316,0.222,-0.336
9.32,0.226,-0.32
9.324,0.222,-0.336
9.328,0.222,-0.32
9.332,0.222,-0.32
9.336,0.226,-0.32
9.34,0.222,-0.328
9.344,0.218,-0.32
9.348,0.218,-0.328
9.352,0.218,-0.328
9.356,0.214,-0.328
9.36,0.214,-0.336
9.364,0.214,-0.312
9.368,0.214,-0.32
9.372,0.206,-0.32
9.376,0.21,-0.312
9.38,0.206,-0.32
9.384,0.206,-0.304
9.388,0.202,-0.304
9.392,0.202,-0.312
9.396,0.198,-0.296
9.4,0.194,-0.312
9.404,0.194,-0.288
9.408,0.186,-0.296
9.412,0.186,-0.28
9.416,0.186,-0.288
9.42,0.186,-0.28
9.424,0.178,-0.272
9.428,0.174,-0.272
9.432,0.174,-0.272
9.436,0.17,-0.264
9.44,0.17,-0.264
9.444,0.166,-0.248
9.448,0.162,-0.256
9.452,0.154,-0.232
9.456,0.154,-0.256
9.46,0.154,-0.232
9.464,0.146,-0.232
9.468,0.146,-0.216
9.472,0.138,-0.216
9.476,0.134,-0.208
9.48,0.134,-0.208
9.484,0.13,-0.2
9.488,0.122,-0.192
9.492,0.122,-0.184
9.496,0.118,-0.176
9.5,0.114,-0.176
9.504,0.11,-0.168
9.508,0.102,-0.16
9.512,0.098,-0.16
9.516,0.098,-0.152
9.52,0.09,-0.144
9.524,0.086,-0.136
9.528,0.086,-0.128
9.532,0.078,-0.12
9.536,0.074,-0.12
9.54,0.07,-0.104
9.544,0.066,-0.104
9.548,0.066,-0.096
9.552,0.058,-0.096
9.556,0.054,-0.08000001
9.56,0.05,-0.072
9.564,0.046,-0.056
9.568,0.042,-0.064
9.572,0.034,-0.04
9.576,0.03,-0.048
9.58,0.026,-0.032
9.584,0.022,-0.024
9.588,0.018,-0.024
9.592,0.01,-0.008
9.596,0.006,0
9.6,0.002,0
9.604,-0.002,0.016
9.608,-0.006,0.016
9.612,-0.014,0.032
9.616,-0.014,0.04
9.62,-0.022,0.048
9.624,-0.026,0.056
9.628,-0.034,0.048
9.632,-0.034,0.072
9.636,-0.038,0.072
9.64,-0.046,0.08000001
9.644,-0.054,0.08800001
9.648,-0.05,0.096
9.652,-0.058,0.096
9.656,-0.066,0.096
9.66,-0.066,0.112
9.664,-0.074,0.112
9.668,-0.078,0.12
9.672,-0.082,0.128
9.676,-0.086,0.136
9.68,-0.09,0.144
9.684,-0.094,0.152
9.688,-0.098,0.168
9.692,-0.102,0.168
9.696,-0.106,0.168
9.7,-0.114,0.192
9.704,-0.114,0.184
9.708,-0.122,0.2
9.712,-0.122,0.2
9.716,-0.13,0.208
9.72,-0.134,0.216
9.724,-0.138,0.208
9.728,-0.142,0.224
9.732,-0.146,0.224
9.736,-0.146,0.232
9.74,-0.15,0.232
9.744,-0.154,0.248
9.748,-0.158,0.248
9.752,-0.162,0.256
9.756,-0.162,0.264
9.76,-0.166,0.264
9.764,-0.17,0.272
9.768,-0.178,0.272
9.772,-0.174,0.272
9.776,-0.178,0.28
9.78,-0.186,0.28
9.784,-0.182,0.288
9.788,-0.186,0.288
9.792,-0.186,0.296
9.796,-0.19,0.304
9.8,-0.19,0.304
9.804,-0.19,0.304
9.808,-0.194,0.312
9.812,-0.202,0.312
9.816,-0.194,0.312
9.82,-0.198,0.312
9.824,-0.202,0.32
9.828,-0.202,0.312
9.832,-0.206,0.32
9.836,-0.206,0.312
9.84,-0.202,0.32
9.844,-0.21,0.32
9.848,-0.21,0.32
9.852,-0.21,0.328
9.856,-0.21,0.32
9.86,-0.21,0.328
9.864,-0.214,0.328
9.868,-0.214,0.328
9.872,-0.214,0.32
9.876,-0.214,0.328
9.88,-0.214,0.32
9.884,-0.21,0.32
9.888,-0.214,0.328
9.892,-0.214,0.312
9.896,-0.218,0.32
9.9,-0.214,0.312
9.904,-0.214,0.312
9.908,-0.214,0.312
9.912,-0.214,0.304
9.916,-0.21,0.312
9.92,-0.206,0.312
9.924,-0.206,0.296
9.928,-0.206,0.304
9.932,-0.206,0.296
9.936,-0.202,0.304
9.94,-0.206,0.296
9.944,-0.202,0.288
9.948,-0.202,0.288
9.952,-0.198,0.28
9.956,-0.194,0.28
9.96,-0.194,0.272
9.964,-0.19,0.272
9.968,-0.19,0.272
9.972,-0.19,0.256
9.976,-0.19,0.256
9.98,-0.186,0.256
9.984,-0.186,0.256
9.988,-0.182,0.24
9.992,-0.178,0.24
9.996,-0.178,0.232
10,-0.174,0.232
10.004,-0.174,0.224
10.008,-0.166,0.216
10.012,-0.166,0.216
10.016,-0.162,0.208
10.02,-0.158,0.2
10.024,-0.15,0.2
10.028,-0.15,0.192
10.032,-0.146,0.184
10.036,-0.142,0.176
10.04,-0.138,0.176
10.044,-0.13,0.168
10.048,-0.134,0.16
10.052,-0.13,0.152
10.056,-0.126,0.144
10.06,-0.118,0.144
10.064,-0.114,0.128
10.068,-0.114,0.128
10.072,-0.11,0.12
10.076,-0.102,0.112
10.08,-0.098,0.104
10.084,-0.094,0.096
10.088,-0.086,0.096
10.092,-0.086,0.08800001
10.096,-0.078,0.08000001
10.1,-0.074,0.072
10.104,-0.07,0.064
10.108,-0.066,0.056
10.112,-0.062,0.048
10.116,-0.058,0.04
10.12,-0.054,0.04
10.124,-0.046,0.032
10.128,-0.042,0.016
10.132,-0.038,0.016
10.136,-0.03,0
10.14,-0.026,0
10.144,-0.022,-0.008
10.148,-0.014,-0.024
10.152,-0.01,-0.024
10.156,-0.006,-0.032
10.16,-0.002,-0.04
10.164,0.002,-0.048
10.168,0.01,-0.056
10.172,0.01,-0.064
10.176,0.022,-0.064
10.18,0.026,-0.08000001
10.184,0.03,-0.08800001
10.188,0.038,-0.096
10.192,0.038,-0.104
10.196,0.046,-0.104
10.2,0.05,-0.12
10.204,0.054,-0.128
10.208,0.062,-0.136
10.212,0.066,-0.136
10.216,0.07,-0.144
10.22,0.07,-0.152
10.224,0.078,-0.16
10.228,0.082,-0.168
10.232,0.086,-0.176
10.236,0.09,-0.176
10.24,0.098,-0.192
10.244,0.106,-0.192
10.248,0.106,-0.2
10.252,0.11,-0.2
10.256,0.118,-0.208
10.26,0.122,-0.216
10.264,0.126,-0.224
10.268,0.13,-0.232
10.272,0.134,-0.232
10.276,0.138,-0.24
10.28,0.142,-0.24
10.284,0.15,-0.248
10.288,0.154,-0.248
10.292,0.158,-0.248
10.296,0.162,-0.264
10.3,0.162,-0.264
10.304,0.166,-0.272
10.308,0.174,-0.272
10.312,0.174,-0.28
10.316,0.178,-0.288
10.32,0.182,-0.288
10.324,0.186,-0.288
10.328,0.19,-0.296
10.332,0.194,-0.296
10.336,0.198,-0.296
10.34,0.198,-0.304
10.344,0.202,-0.304
10.348,0.206,-0.304
10.352,0.21,-0.312
10.356,0.214,-0.304
10.36,0.214,-0.304
10.364,0.214,-0.304
10.368,0.218,-0.312
10.372,0.218,-0.312
10.376,0.222,-0.312
10.38,0.222,-0.32
10.384,0.226,-0.312
10.388,0.226,-0.32
10.392,0.234,-0.32
10.396,0.23,-0.312
10.4,0.234,-0.32
10.404,0.234,-0.304
10.408,0.238,-0.32
10.412,0.234,-0.296
10.416,0.238,-0.32
10.42,0.246,-0.304
10.424,0.242,-0.304
10.428,0.242,-0.312
10.432,0.242,-0.296
10.436,0.242,-0.304
10.44,0.242,-0.304
10.444,0.246,-0.304
10.448,0.246,-0.304
10.452,0.246,-0.296
10.456,0.246,-0.304
10.46,0.246,-0.288
10.464,0.246,-0.296
10.468,0.246,-0.288
10.472,0.242,-0.304
10.476,0.242,-0.288
10.48,0.246,-0.288
10.484,0.242,-0.288
10.488,0.242,-0.272
10.492,0.242,-0.272
10.496,0.242,-0.272
10.5,0.238,-0.256
10.504,0.238,-0.264
10.508,0.238,-0.24
10.512,0.234,-0.256
10.516,0.234,-0.24
10.52,0.23,-0.24
10.524,0.23,-0.232
10.528,0.226,-0.232
10.532,0.222,-0.224
10.536,0.222,-0.224
10.54,0.222,-0.208
10.544,0.218,-0.208
10.548,0.21,-0.192
10.552,0.214,-0.2
10.556,0.21,-0.192
10.56,0.21,-0.192
10.564,0.202,-0.176
10.568,0.202,-0.176
10.572,0.198,-0.168
10.576,0.194,-0.168
10.58,0.194,-0.16
10.584,0.186,-0.16
10.588,0.19,-0.152
10.592,0.182,-0.144
10.596,0.178,-0.144
10.6,0.178,-0.136
10.604,0.17,-0.128
10.608,0.166,-0.128
10.612,0.162,-0.104
10.616,0.162,-0.112
10.62,0.154,-0.08800001
10.624,0.15,-0.096
10.628,0.142,-0.08800001
10.632,0.138,-0.072
10.636,0.134,-0.08000001
10.64,0.13,-0.072
10.644,0.122,-0.064
10.648,0.122,-0.056
10.652,0.114,-0.048
10.656,0.11,-0.04
10.66,0.106,-0.032
10.664,0.098,-0.032
10.668,0.094,-0.016
10.672,0.09,-0.016
10.676,0.082,-0.008
10.68,0.078,-0.008
10.684,0.07,0.008
10.688,0.066,0.016
10.692,0.066,0.024
10.696,0.058,0.032
10.7,0.05,0.04
10.704,0.046,0.04
10.708,0.042,0.048
10.712,0.038,0.056
10.716,0.026,0.064
10.72,0.026,0.064
10.724,0.014,0.08000001
10.728,0.01,0.08000001
10.732,0.002,0.08800001
10.736,-0.002,0.096
10.74,-0.01,0.096
10.744,-0.014,0.104
10.748,-0.022,0.112
10.752,-0.026,0.112
10.756,-0.034,0.128
10.76,-0.034,0.12
10.764,-0.042,0.136
10.768,-0.05,0.136
10.772,-0.054,0.144
10.776,-0.062,0.152
10.78,-0.066,0.152
10.784,-0.07,0.168
10.788,-0.078,0.168
10.792,-0.082,0.176
10.796,-0.09,0.176
10.8,-0.094,0.184
10.804,-0.102,0.184
10.808,-0.11,0.192
10.812,-0.114,0.2
10.816,-0.118,0.2
10.82,-0.126,0.208
10.824,-0.13,0.208
10.828,-0.134,0.208
10.832,-0.142,0.216
10.836,-0.146,0.224
10.84,-0.154,0.224
10.844,-0.162,0.232
10.848,-0.162,0.232
10.852,-0.17,0.24
10.856,-0.17,0.232
10.86,-0.178,0.248
10.864,-0.186,0.24
10.868,-0.186,0.256
10.872,-0.19,0.248
10.876,-0.194,0.256
10.88,-0.198,0.264
10.884,-0.202,0.264
10.888,-0.21,0.272
10.892,-0.21,0.264
10.896,-0.218,0.272
10.9,-0.222,0.272
10.904,-0.222,0.272
10.908,-0.226,0.28
10.912,-0.23,0.28
10.916,-0.234,0.28
10.92,-0.234,0.28
10.924,-0.238,0.288
10.928,-0.242,0.288
10.932,-0.246,0.28
10.936,-0.25,0.288
10.94,-0.25,0.28
10.944,-0.258,0.288
10.948,-0.258,0.288
10.952,-0.258,0.288
10.956,-0.262,0.288
10.96,-0.262,0.28
10.964,-0.266,0.28
10.968,-0.262,0.272
10.972,-0.266,0.28
10.976,-0.266,0.28
10.98,-0.27,0.28
10.984,-0.27,0.28
10.988,-0.27,0.272
10.992,-0.274,0.272
10.996,-0.274,0.272
11,-0.274,0.264
11.004,-0.274,0.272
11.008,-0.274,0.264
11.012,-0.274,0.264
11.016,-0.274,0.264
11.02,-0.274,0.256
11.024,-0.274,0.256
11.028,-0.27,0.256
11.032,-0.27,0.256
11.036,-0.27,0.248
11.04,-0.27,0.256
11.044,-0.266,0.24
11.048,-0.266,0.248
11.052,-0.262,0.232
11.056,-0.262,0.232
11.06,-0.258,0.232
11.064,-0.258,0.224
11.068,-0.254,0.224
11.072,-0.254,0.224
11.076,-0.25,0.216
11.08,-0.246,0.216
11.084,-0.242,0.208
11.088,-0.242,0.208
11.092,-0.242,0.2
11.096,-0.234,0.192
11.1,-0.234,0.192
11.104,-0.23,0.184
11.108,-0.226,0.184
11.112,-0.218,0.168
11.116,-0.218,0.168
11.12,-0.21,0.168
11.124,-0.206,0.16
11.128,-0.202,0.16
11.132,-0.198,0.144
11.136,-0.19,0.144
11.14,-0.19,0.144
11.144,-0.186,0.136
11.148,-0.186,0.128
11.152,-0.182,0.12
11.156,-0.174,0.12
11.16,-0.166,0.112
11.164,-0.158,0.112
11.168,-0.158,0.104
11.172,-0.15,0.096
11.176,-0.142,0.08800001
11.18,-0.142,0.08000001
11.184,-0.13,0.072
11.188,-0.13,0.064
11.192,-0.118,0.072
11.196,-0.114,0.064
11.2,-0.11,0.056
11.204,-0.102,0.056
11.208,-0.098,0.04
11.212,-0.09,0.032
11.216,-0.082,0.024
11.22,-0.078,0.016
11.224,-0.07,0.016
11.228,-0.066,0.008
11.232,-0.058,0
11.236,-0.054,-0.008
11.24,-0.046,-0.008
11.244,-0.038,-0.024
11.248,-0.03,-0.032
11.252,-0.022,-0.032
11.256,-0.018,-0.04
11.26,-0.006,-0.048
11.264,-0.002,-0.056
11.268,0.002,-0.064
11.272,0.014,-0.064
11.276,0.014,-0.064
11.28,0.022,-0.072
11.284,0.03,-0.08800001
11.288,0.038,-0.08800001
11.292,0.046,-0.096
11.296,0.054,-0.104
11.3,0.058,-0.112
11.304,0.066,-0.12
11.308,0.07,-0.12
11.312,0.074,-0.128
11.316,0.082,-0.136
11.32,0.086,-0.136
11.324,0.098,-0.144
11.328,0.102,-0.152
11.332,0.11,-0.16
11.336,0.114,-0.16
11.34,0.118,-0.16
11.344,0.122,-0.168
11.348,0.13,-0.168
11.352,0.138,-0.176
11.356,0.146,-0.184
11.36,0.154,-0.184
11.364,0.162,-0.192
11.368,0.166,-0.2
11.372,0.17,-0.208
11.376,0.178,-0.208
11.38,0.182,-0.208
11.384,0.186,-0.216
11.388,0.194,-0.224
11.392,0.198,-0.216
11.396,0.202,-0.232
11.4,0.206,-0.232
11.404,0.21,-0.232
11.408,0.218,-0.24
11.412,0.222,-0.24
11.416,0.222,-0.24
11.42,0.23,-0.24
11.424,0.234,-0.24
11.428,0.238,-0.256
11.432,0.242,-0.248
11.436,0.246,-0.256
11.44,0.25,-0.256
11.444,0.254,-0.256
11.448,0.254,-0.256
11.452,0.258,-0.256
11.456,0.262,-0.264
11.46,0.266,-0.264
11.464,0.262,-0.272
11.468,0.27,-0.272
11.472,0.274,-0.264
11.476,0.278,-0.272
11.48,0.278,-0.272
11.484,0.278,-0.272
11.488,0.278,-0.272
11.492,0.282,-0.272
11.496,0.286,-0.272
11.5,0.286,-0.272
11.504,0.29,-0.28
11.508,0.294,-0.272
11.512,0.29,-0.28
11.516,0.29,-0.272
11.52,0.294,-0.28
11.524,0.294,-0.272
11.528,0.29,-0.272
11.532,0.298,-0.272
11.536,0.298,-0.272
11.54,0.294,-0.272
11.544,0.294,-0.264
11.548,0.298,-0.264
11.552,0.294,-0.264
11.556,0.294,-0.256
11.56,0.294,-0.256
11.564,0.294,-0.264
11.568,0.294,-0.256
11.572,0.29,-0.256
11.576,0.29,-0.248
11.58,0.29,-0.256
11.584,0.286,-0.248
11.588,0.286,-0.248
11.592,0.29,-0.248
11.596,0.282,-0.24
11.6,0.278,-0.24
11.604,0.274,-0.232
11.608,0.278,-0.224
11.612,0.27,-0.224
11.616,0.27,-0.224
11.62,0.27,-0.216
11.624,0.266,-0.216
11.628,0.262,-0.208
11.632,0.258,-0.2
11.636,0.254,-0.2
11.64,0.254,-0.2
11.644,0.25,-0.184
11.648,0.246,-0.192
11.652,0.242,-0.184
11.656,0.238,-0.184
11.66,0.234,-0.184
11.664,0.23,-0.168
11.668,0.222,-0.168
11.672,0.222,-0.16
11.676,0.214,-0.168
11.68,0.21,-0.152
11.684,0.206,-0.152
11.688,0.202,-0.152
11.692,0.194,-0.144
11.696,0.19,-0.144
11.7,0.186,-0.136
11.704,0.182,-0.12
11.708,0.178,-0.112
11.712,0.17,-0.112
11.716,0.162,-0.112
11.72,0.158,-0.104
11.724,0.154,-0.096
11.728,0.146,-0.096
11.732,0.138,-0.08800001
11.736,0.134,-0.08000001
11.74,0.122,-0.072
11.744,0.118,-0.064
11.748,0.114,-0.064
11.752,0.106,-0.056
11.756,0.102,-0.048
11.76,0.094,-0.048
11.764,0.086,-0.032
11.768,0.082,-0.024
11.772,0.07,-0.024
11.776,0.07,-0.016
11.78,0.062,-0.016
11.784,0.054,-0.008
11.788,0.046,-0.008
11.792,0.038,0
11.796,0.034,0.008
11.8,0.026,0.016
11.804,0.018,0.016
11.808,0.01,0.024
11.812,0.006,0.04
11.816,-0.002,0.04
11.82,-0.006,0.04
11.824,-0.018,0.048
11.828,-0.022,0.056
11.832,-0.034,0.056
11.836,-0.042,0.064
11.84,-0.05,0.072
11.844,-0.054,0.08000001
11.848,-0.062,0.08000001
11.852,-0.066,0.08800001
11.856,-0.074,0.08800001
11.86,-0.086,0.096
11.864,-0.086,0.096
11.868,-0.098,0.104
11.872,-0.106,0.112
11.876,-0.114,0.12
11.88,-0.122,0.128
11.884,-0.126,0.128
11.888,-0.134,0.136
11.892,-0.138,0.136
11.896,-0.146,0.144
11.9,-0.154,0.144
11.904,-0.162,0.152
11.908,-0.166,0.16
11.912,-0.17,0.16
11.916,-0.178,0.168
11.92,-0.186,0.168
11.924,-0.186,0.168
11.928,-0.194,0.176
11.932,-0.202,0.176
11.936,-0.202,0.176
11.94,-0.21,0.192
11.944,-0.214,0.192
11.948,-0.218,0.192
11.952,-0.226,0.2
11.956,-0.23,0.2
11.96,-0.234,0.208
11.964,-0.242,0.208
11.968,-0.242,0.216
11.972,-0.25,0.216
11.976,-0.254,0.216
11.98,-0.262,0.216
11.984,-0.258,0.224
11.988,-0.266,0.224
11.992,-0.274,0.224
11.996,-0.274,0.232
12,-0.278,0.232
12.004,-0.282,0.232
12.008,-0.282,0.232
12.012,-0.286,0.24
12.016,-0.29,0.24
12.02,-0.294,0.24
12.024,-0.294,0.24
12.028,-0.298,0.24
12.032,-0.298,0.248
12.036,-0.302,0.248
12.04,-0.302,0.248
12.044,-0.306,0.248
12.048,-0.306,0.248
12.052,-0.306,0.248
12.056,-0.306,0.256
12.06,-0.31,0.248
12.064,-0.306,0.248
12.068,-0.31,0.248
12.072,-0.31,0.256
12.076,-0.314,0.256
12.08,-0.31,0.256
12.084,-0.31,0.256
12.088,-0.31,0.248
12.092,-0.31,0.256
12.096,-0.31,0.248
12.1,-0.31,0.248
12.104,-0.306,0.248
12.108,-0.306,0.248
12.112,-0.302,0.248
12.116,-0.302,0.256
12.12,-0.298,0.248
12.124,-0.294,0.24
12.128,-0.294,0.248
12.132,-0.294,0.248
12.136,-0.286,0.248
12.14,-0.286,0.24
12.144,-0.282,0.24
12.148,-0.278,0.24
12.152,-0.274,0.232
12.156,-0.27,0.232
12.16,-0.266,0.224
12.164,-0.266,0.224
12.168,-0.258,0.224
12.172,-0.258,0.216
12.176,-0.25,0.224
12.18,-0.246,0.216
12.184,-0.238,0.208
12.188,-0.234,0.208
12.192,-0.23,0.192
12.196,-0.222,0.2
12.2,-0.218,0.192
12.204,-0.214,0.2
12.208,-0.21,0.2
12.212,-0.206,0.184
12.216,-0.202,0.176
12.22,-0.194,0.184
12.224,-0.19,0.168
12.228,-0.182,0.168
12.232,-0.182,0.16
12.236,-0.178,0.16
12.24,-0.166,0.16
12.244,-0.162,0.144
12.248,-0.154,0.144
12.252,-0.15,0.136
12.256,-0.142,0.128
12.26,-0.134,0.136
12.264,-0.13,0.128
12.268,-0.118,0.12
12.272,-0.114,0.112
12.276,-0.11,0.104
12.28,-0.098,0.104
12.284,-0.094,0.104
12.288,-0.086,0.096
12.292,-0.078,0.096
12.296,-0.07,0.08000001
12.3,-0.062,0.08000001
12.304,-0.054,0.08000001
12.308,-0.046,0.072
12.312,-0.042,0.064
12.316,-0.034,0.056
12.32,-0.022,0.048
12.324,-0.018,0.048
12.328,-0.014,0.04
12.332,-0.006,0.032
12.336,0.002,0.032
12.34,0.014,0.024
12.344,0.018,0.016
12.348,0.026,0.016
12.352,0.03,0.008
12.356,0.042,0.008
12.36,0.046,-0.008
12.364,0.058,-0.016
12.368,0.058,-0.024
12.372,0.07,-0.024
12.376,0.074,-0.032
12.38,0.082,-0.032
12.384,0.086,-0.04
12.388,0.094,-0.048
12.392,0.102,-0.048
12.396,0.11,-0.064
12.4,0.118,-0.072
12.404,0.126,-0.072
12.408,0.13,-0.072
12.412,0.134,-0.08000001
12.416,0.142,-0.08800001
12.42,0.146,-0.096
12.424,0.154,-0.104
12.428,0.162,-0.112
12.432,0.166,-0.112
12.436,0.178,-0.112
12.44,0.178,-0.128
12.444,0.186,-0.144
12.448,0.19,-0.128
12.452,0.198,-0.144
12.456,0.198,-0.152
12.46,0.206,-0.152
12.464,0.21,-0.16
12.468,0.214,-0.168
12.472,0.222,-0.16
12.476,0.226,-0.176
12.48,0.234,-0.176
12.484,0.238,-0.168
12.488,0.238,-0.184
12.492,0.238,-0.184
12.496,0.246,-0.192
12.5,0.254,-0.192
12.504,0.254,-0.192
12.508,0.258,-0.208
12.512,0.262,-0.208
12.516,0.266,-0.216
12.52,0.27,-0.208
12.524,0.27,-0.216
12.528,0.274,-0.216
12.532,0.278,-0.224
12.536,0.278,-0.224
12.54,0.282,-0.224
12.544,0.282,-0.232
12.548,0.286,-0.232
12.552,0.286,-0.232
12.556,0.29,-0.24
12.56,0.294,-0.232
12.564,0.29,-0.24
12.568,0.294,-0.24
12.572,0.294,-0.248
12.576,0.298,-0.256
12.58,0.298,-0.256
12.584,0.298,-0.256
12.588,0.298,-0.256
12.592,0.298,-0.256
12.596,0.302,-0.264
12.6,0.298,-0.256
12.604,0.298,-0.256
12.608,0.298,-0.264
12.612,0.298,-0.264
12.616,0.302,-0.264
12.62,0.302,-0.272
12.624,0.294,-0.272
12.628,0.294,-0.264
12.632,0.294,-0.272
12.636,0.294,-0.272
12.64,0.294,-0.272
12.644,0.29,-0.272
12.648,0.29,-0.272
12.652,0.29,-0.264
12.656,0.286,-0.264
12.66,0.286,-0.264
12.664,0.278,-0.264
12.668,0.282,-0.264
12.672,0.274,-0.272
12.676,0.278,-0.264
12.68,0.27,-0.264
12.684,0.27,-0.256
12.688,0.266,-0.256
12.692,0.262,-0.256
12.696,0.262,-0.248
12.7,0.258,-0.248
12.704,0.254,-0.248
12.708,0.25,-0.248
12.712,0.242,-0.248
12.716,0.242,-0.24
12.72,0.238,-0.24
12.724,0.238,-0.24
12.728,0.23,-0.232
12.732,0.226,-0.232
12.736,0.218,-0.224
12.74,0.214,-0.232
12.744,0.21,-0.216
12.748,0.206,-0.224
12.752,0.198,-0.216
12.756,0.198,-0.216
12.76,0.19,-0.208
12.764,0.186,-0.208
12.768,0.182,-0.2
12.772,0.178,-0.192
12.776,0.17,-0.184
12.78,0.162,-0.192
12.784,0.158,-0.184
12.788,0.15,-0.176
12.792,0.146,-0.176
12.796,0.138,-0.168
12.8,0.13,-0.168
12.804,0.126,-0.16
12.808,0.122,-0.16
12.812,0.114,-0.16
12.816,0.11,-0.152
12.82,0.102,-0.144
12.824,0.094,-0.136
12.828,0.09,-0.128
12.832,0.082,-0.128
12.836,0.078,-0.112
12.84,0.07,-0.12
12.844,0.066,-0.112
12.848,0.058,-0.104
12.852,0.054,-0.096
12.856,0.042,-0.08800001
12.86,0.038,-0.08800001
12.864,0.034,-0.08000001
12.868,0.026,-0.072
12.872,0.014,-0.064
12.876,0.01,-0.064
12.88,0.006,-0.048
12.884,-0.006,-0.056
12.888,-0.01,-0.048
12.892,-0.018,-0.04
12.896,-0.026,-0.032
12.9,-0.034,-0.032
12.904,-0.038,-0.016
12.908,-0.046,-0.016
12.912,-0.05,0
12.916,-0.062,0
12.92,-0.066,0.008
12.924,-0.07,0.008
12.928,-0.082,0.016
12.932,-0.086,0.024
12.936,-0.09,0.032
12.94,-0.098,0.032
12.944,-0.106,0.04
12.948,-0.11,0.048
12.952,-0.118,0.064
12.956,-0.126,0.064
12.96,-0.13,0.064
12.964,-0.138,0.072
12.968,-0.138,0.08000001
12.972,-0.15,0.08800001
12.976,-0.15,0.096
12.98,-0.162,0.096
12.984,-0.166,0.096
12.988,-0.17,0.104
12.992,-0.178,0.112
12.996,-0.182,0.12
13,-0.186,0.12
13.004,-0.19,0.128
13.008,-0.194,0.136
13.012,-0.198,0.136
13.016,-0.202,0.144
13.02,-0.21,0.152
13.024,-0.214,0.16
13.028,-0.214,0.16
13.032,-0.222,0.16
13.036,-0.226,0.176
13.04,-0.226,0.176
13.044,-0.234,0.184
13.048,-0.234,0.184
13.052,-0.238,0.184
13.056,-0.246,0.192
13.06,-0.25,0.192
13.064,-0.25,0.2
13.068,-0.25,0.216
13.072,-0.254,0.208
13.076,-0.262,0.216
13.08,-0.258,0.224
13.084,-0.262,0.216
13.088,-0.266,0.232
13.092,-0.266,0.232
13.096,-0.27,0.232
13.1,-0.27,0.24
13.104,-0.27,0.24
13.108,-0.274,0.24
13.112,-0.274,0.24
13.116,-0.274,0.248
13.12,-0.278,0.248
13.124,-0.274,0.256
13.128,-0.274,0.264
13.132,-0.274,0.264
13.136,-0.274,0.256
13.14,-0.278,0.264
13.144,-0.274,0.264
13.148,-0.278,0.264
13.152,-0.278,0.272
13.156,-0.274,0.28
13.16,-0.278,0.28
13.164,-0.274,0.28
13.168,-0.274,0.28
13.172,-0.27,0.28
13.176,-0.27,0.272
13.18,-0.266,0.28
13.184,-0.27,0.28
13.188,-0.266,0.288
13.192,-0.266,0.28
13.196,-0.258,0.28
13.2,-0.258,0.28
13.204,-0.254,0.288
13.208,-0.25,0.28
13.212,-0.254,0.28
13.216,-0.246,0.28
13.22,-0.242,0.28
13.224,-0.242,0.272
13.228,-0.234,0.28
13.232,-0.234,0.28
13.236,-0.23,0.272
13.24,-0.226,0.28
13.244,-0.222,0.272
13.248,-0.214,0.272
13.252,-0.21,0.272
13.256,-0.21,0.264
13.26,-0.202,0.264
13.264,-0.198,0.256
13.268,-0.194,0.264
13.272,-0.19,0.256
13.276,-0.186,0.256
13.28,-0.186,0.256
13.284,-0.182,0.248
13.288,-0.178,0.24
13.292,-0.17,0.24
13.296,-0.166,0.24
13.3,-0.162,0.24
13.304,-0.158,0.232
13.308,-0.15,0.224
13.312,-0.146,0.224
13.316,-0.138,0.216
13.32,-0.134,0.216
13.324,-0.126,0.216
13.328,-0.126,0.2
13.332,-0.118,0.2
13.336,-0.106,0.2
13.34,-0.102,0.192
13.344,-0.098,0.184
13.348,-0.09,0.184
13.352,-0.086,0.176
13.356,-0.078,0.168
13.36,-0.07,0.168
13.364,-0.066,0.16
13.368,-0.062,0.16
13.372,-0.054,0.144
13.376,-0.046,0.136
13.38,-0.042,0.144
13.384,-0.034,0.136
13.388,-0.03,0.12
13.392,-0.022,0.12
13.396,-0.014,0.112
13.4,-0.01,0.112
13.404,-0.006,0.104
13.408,0.002,0.096
13.412,0.006,0.096
13.416,0.014,0.08800001
13.42,0.018,0.08800001
13.424,0.026,0.072
13.428,0.034,0.064
13.432,0.042,0.064
13.436,0.046,0.048
13.44,0.054,0.048
13.444,0.058,0.032
13.448,0.066,0.032
13.452,0.07,0.024
13.456,0.07,0.016
13.46,0.074,0.016
13.464,0.082,0
13.468,0.09,0
13.472,0.094,-0.016
13.476,0.098,-0.016
13.48,0.106,-0.016
13.484,0.114,-0.024
13.488,0.114,-0.04
13.492,0.122,-0.048
13.496,0.122,-0.048
13.5,0.13,-0.056
13.504,0.134,-0.064
13.508,0.142,-0.072
13.512,0.146,-0.08000001
13.516,0.15,-0.08800001
13.52,0.158,-0.08800001
13.524,0.162,-0.104
13.528,0.166,-0.112
13.532,0.17,-0.112
13.536,0.17,-0.12
13.54,0.178,-0.128
13.544,0.182,-0.136
13.548,0.186,-0.144
13.552,0.19,-0.144
13.556,0.194,-0.144
13.56,0.198,-0.16
13.564,0.202,-0.168
13.568,0.206,-0.168
13.572,0.206,-0.176
13.576,0.206,-0.176
13.58,0.21,-0.184
13.584,0.214,-0.184
13.588,0.218,-0.192
13.592,0.222,-0.192
13.596,0.222,-0.2
13.6,0.226,-0.208
13.604,0.23,-0.208
13.608,0.23,-0.216
13.612,0.23,-0.216
13.616,0.234,-0.224
13.62,0.238,-0.24
13.624,0.234,-0.24
13.628,0.238,-0.248
13.632,0.238,-0.248
13.636,0.242,-0.248
13.64,0.242,-0.256
13.644,0.25,-0.256
13.648,0.25,-0.256
13.652,0.25,-0.264
13.656,0.254,-0.264
13.66,0.25,-0.272
13.664,0.25,-0.28
13.668,0.25,-0.28
13.672,0.25,-0.288
13.676,0.25,-0.28
13.68,0.246,-0.288
13.684,0.25,-0.296
13.688,0.25,-0.296
13.692,0.25,-0.296
13.696,0.254,-0.296
13.7,0.25,-0.296
13.704,0.25,-0.304
13.708,0.246,-0.296
13.712,0.246,-0.304
13.716,0.246,-0.296
13.72,0.246,-0.304
13.724,0.242,-0.304
13.728,0.242,-0.304
13.732,0.238,-0.312
13.736,0.242,-0.312
13.74,0.234,-0.312
13.744,0.238,-0.312
13.748,0.234,-0.312
13.752,0.234,-0.304
13.756,0.234,-0.304
13.76,0.226,-0.304
13.764,0.226,-0.304
13.768,0.222,-0.296
13.772,0.218,-0.304
13.776,0.214,-0.304
13.78,0.214,-0.296
13.784,0.214,-0.296
13.788,0.206,-0.296
13.792,0.206,-0.296
13.796,0.202,-0.296
13.8,0.198,-0.288
13.804,0.198,-0.288
13.808,0.194,-0.288
13.812,0.19,-0.288
13.816,0.186,-0.28
13.82,0.182,-0.28
13.824,0.178,-0.28
13.828,0.174,-0.272
13.832,0.17,-0.264
13.836,0.17,-0.256
13.84,0.162,-0.256
13.844,0.158,-0.256
13.848,0.154,-0.256
13.852,0.15,-0.248
13.856,0.15,-0.248
13.86,0.142,-0.24
13.864,0.138,-0.24
13.868,0.134,-0.232
13.872,0.13,-0.224
13.876,0.122,-0.216
13.88,0.122,-0.216
13.884,0.114,-0.208
13.888,0.11,-0.2
13.892,0.102,-0.192
13.896,0.102,-0.192
13.9,0.094,-0.192
13.904,0.09,-0.184
13.908,0.086,-0.176
13.912,0.078,-0.176
13.916,0.078,-0.16
13.92,0.07,-0.16
13.924,0.066,-0.152
13.928,0.062,-0.152
13.932,0.058,-0.144
13.936,0.054,-0.136
13.94,0.046,-0.136
13.944,0.042,-0.12
13.948,0.038,-0.12
13.952,0.034,-0.112
13.956,0.026,-0.104
13.96,0.022,-0.096
13.964,0.014,-0.096
13.968,0.006,-0.08000001
13.972,0.006,-0.072
13.976,-0.002,-0.064
13.98,-0.006,-0.056
13.984,-0.01,-0.048
13.988,-0.014,-0.04
13.992,-0.022,-0.04
13.996,-0.022,-0.024
14,-0.03,-0.024
14.004,-0.038,-0.008
14.008,-0.042,-0.008
14.012,-0.046,0
14.016,-0.054,0.008
14.02,-0.058,0.016
14.024,-0.058,0.024
14.028,-0.062,0.032
14.032,-0.07,0.032
14.036,-0.074,0.048
14.04,-0.078,0.056
14.044,-0.086,0.056
14.048,-0.086,0.064
14.052,-0.094,0.072
14.056,-0.102,0.08000001
14.06,-0.098,0.08800001
14.064,-0.11,0.096
14.068,-0.114,0.096
14.072,-0.118,0.112
14.076,-0.122,0.112
14.08,-0.126,0.12
14.084,-0.13,0.128
14.088,-0.13,0.136
14.092,-0.138,0.136
14.096,-0.138,0.144
14.1,-0.138,0.152
14.104,-0.146,0.16
14.108,-0.15,0.16
14.112,-0.158,0.168
14.116,-0.162,0.184
14.12,-0.162,0.184
14.124,-0.166,0.192
14.128,-0.17,0.2
14.132,-0.174,0.2
14.136,-0.174,0.208
14.14,-0.178,0.208
14.144,-0.178,0.216
14.148,-0.186,0.216
14.152,-0.186,0.224
14.156,-0.182,0.232
14.16,-0.186,0.24
14.164,-0.19,0.248
14.168,-0.19,0.24
14.172,-0.19,0.248
14.176,-0.194,0.248
14.18,-0.198,0.256
14.184,-0.198,0.264
14.188,-0.202,0.272
14.192,-0.198,0.272
14.196,-0.206,0.272
14.2,-0.206,0.272
14.204,-0.202,0.28
14.208,-0.206,0.288
14.212,-0.21,0.288
14.216,-0.21,0.296
14.22,-0.21,0.288
14.224,-0.21,0.296
14.228,-0.21,0.296
14.232,-0.21,0.304
14.236,-0.21,0.304
14.24,-0.21,0.304
14.244,-0.214,0.312
14.248,-0.21,0.312
14.252,-0.21,0.312
14.256,-0.21,0.312
14.26,-0.21,0.312
14.264,-0.21,0.312
14.268,-0.21,0.312
14.272,-0.206,0.312
14.276,-0.206,0.32
14.28,-0.21,0.312
14.284,-0.21,0.32
14.288,-0.206,0.312
14.292,-0.202,0.32
14.296,-0.202,0.32
14.3,-0.202,0.32
14.304,-0.198,0.312
14.308,-0.198,0.312
14.312,-0.194,0.312
14.316,-0.19,0.312
14.32,-0.194,0.304
14.324,-0.19,0.312
14.328,-0.19,0.304
14.332,-0.186,0.304
14.336,-0.186,0.296
14.34,-0.186,0.304
14.344,-0.182,0.296
14.348,-0.178,0.296
14.352,-0.174,0.288
14.356,-0.174,0.288
14.36,-0.17,0.288
14.364,-0.166,0.28
14.368,-0.166,0.28
14.372,-0.162,0.272
14.376,-0.158,0.272
14.38,-0.154,0.256
14.384,-0.15,0.264
14.388,-0.15,0.256
14.392,-0.15,0.256
14.396,-0.138,0.256
14.4,-0.138,0.24
14.404,-0.134,0.24
14.408,-0.126,0.24
14.412,-0.13,0.232
14.416,-0.126,0.224
14.42,-0.118,0.216
14.424,-0.114,0.216
14.428,-0.11,0.208
14.432,-0.11,0.2
14.436,-0.102,0.2
14.44,-0.098,0.192
14.444,-0.098,0.184
14.448,-0.09,0.176
14.452,-0.086,0.168
14.456,-0.082,0.168
14.46,-0.078,0.152
14.464,-0.074,0.152
14.468,-0.07,0.144
14.472,-0.062,0.136
14.476,-0.058,0.128
14.48,-0.058,0.128
14.484,-0.046,0.12
14.488,-0.046,0.112
14.492,-0.038,0.104
14.496,-0.038,0.104
14.5,-0.034,0.096
14.504,-0.026,0.08000001
14.508,-0.022,0.08000001
14.512,-0.022,0.072
14.516,-0.01,0.056
14.52,-0.006,0.056
14.524,0.002,0.056
14.528,0.002,0.04
14.532,0.006,0.04
14.536,0.01,0.024
14.54,0.014,0.024
14.544,0.022,0.008
14.548,0.022,0
14.552,0.034,0
14.556,0.034,-0.016
14.56,0.038,-0.016
14.564,0.042,-0.032
14.568,0.046,-0.04
14.572,0.054,-0.04
14.576,0.058,-0.056
14.58,0.058,-0.064
14.584,0.062,-0.064
14.588,0.07,-0.08000001
14.592,0.07,-0.08000001
14.596,0.078,-0.096
14.6,0.078,-0.096
14.604,0.086,-0.104
14.608,0.086,-0.112
14.612,0.09,-0.12
14.616,0.098,-0.12
14.62,0.098,-0.136
14.624,0.102,-0.136
14.628,0.11,-0.144
14.632,0.114,-0.152
14.636,0.114,-0.16
14.64,0.122,-0.168
14.644,0.122,-0.176
14.648,0.13,-0.176
14.652,0.13,-0.176
14.656,0.134,-0.184
14.66,0.134,-0.192
14.664,0.142,-0.2
14.668,0.142,-0.208
14.672,0.15,-0.208
14.676,0.15,-0.216
14.68,0.154,-0.216
14.684,0.154,-0.232
14.688,0.158,-0.24
14.692,0.162,-0.24
14.696,0.166,-0.24
14.7,0.17,-0.248
14.704,0.17,-0.256
14.708,0.174,-0.264
14.712,0.17,-0.264
14.716,0.182,-0.264
14.72,0.178,-0.272
14.724,0.182,-0.272
14.728,0.186,-0.28
14.732,0.186,-0.288
14.736,0.19,-0.288
14.74,0.194,-0.288
14.744,0.194,-0.296
14.748,0.194,-0.296
14.752,0.198,-0.304
14.756,0.198,-0.296
14.76,0.198,-0.304
14.764,0.202,-0.304
14.768,0.198,-0.312
14.772,0.202,-0.32
14.776,0.206,-0.312
14.78,0.21,-0.312
14.784,0.214,-0.312
14.788,0.206,-0.32
14.792,0.206,-0.32
14.796,0.206,-0.32
14.8,0.206,-0.32
14.804,0.21,-0.32
14.808,0.21,-0.32
14.812,0.206,-0.32
14.816,0.206,-0.32
14.82,0.21,-0.32
14.824,0.21,-0.304
14.828,0.21,-0.312
14.832,0.21,-0.304
14.836,0.206,-0.304
14.84,0.21,-0.304
14.844,0.21,-0.304
14.848,0.21,-0.304
14.852,0.206,-0.304
14.856,0.21,-0.296
14.86,0.206,-0.296
14.864,0.21,-0.304
14.868,0.202,-0.296
14.872,0.202,-0.288
14.876,0.206,-0.296
14.88,0.202,-0.296
14.884,0.202,-0.288
14.888,0.198,-0.296
14.892,0.198,-0.28
14.896,0.198,-0.288
14.9,0.198,-0.28
14.904,0.194,-0.288
14.908,0.19,-0.28
14.912,0.194,-0.264
14.916,0.194,-0.272
14.92,0.186,-0.264
14.924,0.186,-0.256
14.928,0.182,-0.256
14.932,0.182,-0.24
14.936,0.182,-0.248
14.94,0.178,-0.232
14.944,0.174,-0.232
14.948,0.17,-0.224
14.952,0.17,-0.224
14.956,0.17,-0.216
14.96,0.162,-0.216
14.964,0.158,-0.2
14.968,0.158,-0.2
14.972,0.154,-0.2
14.976,0.15,-0.192
14.98,0.146,-0.176
14.984,0.142,-0.176
14.988,0.138,-0.16
14.992,0.138,-0.168
14.996,0.13,-0.152
15,0.13,-0.152
15.004,0.13,-0.144
15.008,0.122,-0.144
15.012,0.122,-0.136
15.016,0.114,-0.128
15.02,0.11,-0.12
15.024,0.106,-0.12
15.028,0.106,-0.104
15.032,0.098,-0.104
15.036,0.094,-0.096
15.04,0.09,-0.08800001
15.044,0.086,-0.08000001
15.048,0.078,-0.08000001
15.052,0.078,-0.072
15.056,0.074,-0.072
15.06,0.07,-0.056
15.064,0.07,-0.048
15.068,0.066,-0.04
15.072,0.058,-0.032
15.076,0.058,-0.032
15.08,0.05,-0.024
15.084,0.046,-0.016
15.088,0.042,-0.008
15.092,0.038,0.008
15.096,0.034,0.008
15.1,0.026,0.016
15.104,0.022,0.024
15.108,0.018,0.032
15.112,0.014,0.04
15.116,0.006,0.048
15.12,0.006,0.056
15.124,-0.002,0.064
15.128,-0.006,0.064
15.132,-0.01,0.08000001
15.136,-0.014,0.08800001
15.14,-0.018,0.08800001
15.144,-0.022,0.08800001
15.148,-0.03,0.096
15.152,-0.038,0.104
15.156,-0.042,0.12
15.16,-0.042,0.12
15.164,-0.05,0.12
15.168,-0.05,0.136
15.172,-0.058,0.144
15.176,-0.062,0.144
15.18,-0.066,0.144
15.184,-0.074,0.152
15.188,-0.074,0.16
15.192,-0.078,0.176
15.196,-0.086,0.184
15.2,-0.09,0.184
15.204,-0.094,0.192
15.208,-0.098,0.192
15.212,-0.102,0.2
15.216,-0.106,0.208
15.22,-0.11,0.2
15.224,-0.118,0.216
15.228,-0.122,0.216
15.232,-0.126,0.224
15.236,-0.13,0.232
15.24,-0.13,0.232
15.244,-0.138,0.232
15.248,-0.142,0.24
15.252,-0.142,0.248
15.256,-0.146,0.248
15.26,-0.15,0.256
15.264,-0.158,0.264
15.268,-0.158,0.264
15.272,-0.162,0.272
15.276,-0.166,0.272
15.28,-0.166,0.272
15.284,-0.174,0.28
15.288,-0.174,0.28
15.292,-0.178,0.28
15.296,-0.182,0.288
15.3,-0.182,0.288
15.304,-0.186,0.288
15.308,-0.186,0.288
15.312,-0.19,0.288
15.316,-0.19,0.296
15.32,-0.19,0.296
15.324,-0.194,0.304
15.328,-0.198,0.296
15.332,-0.198,0.304
15.336,-0.198,0.312
15.34,-0.202,0.312
15.344,-0.202,0.304
15.348,-0.202,0.304
15.352,-0.202,0.304
15.356,-0.206,0.304
15.36,-0.21,0.304
15.364,-0.21,0.304
15.368,-0.214,0.304
15.372,-0.21,0.304
15.376,-0.214,0.312
15.38,-0.214,0.304
15.384,-0.218,0.304
15.388,-0.214,0.304
15.392,-0.214,0.296
15.396,-0.214,0.296
15.4,-0.218,0.296
15.404,-0.214,0.288
15.408,-0.218,0.288
15.412,-0.214,0.288
15.416,-0.218,0.288
15.42,-0.214,0.28
15.424,-0.214,0.28
15.428,-0.214,0.28
15.432,-0.214,0.28
15.436,-0.214,0.28
15.44,-0.21,0.264
15.444,-0.21,0.264
15.448,-0.21,0.264
15.452,-0.206,0.264
15.456,-0.206,0.256
15.46,-0.202,0.248
15.464,-0.206,0.248
15.468,-0.202,0.24
15.472,-0.198,0.24
15.476,-0.198,0.24
15.48,-0.194,0.224
15.484,-0.194,0.224
15.488,-0.19,0.224
15.492,-0.19,0.216
15.496,-0.19,0.216
15.5,-0.186,0.208
15.504,-0.182,0.2
15.508,-0.178,0.192
15.512,-0.178,0.192
15.516,-0.178,0.184
15.52,-0.174,0.184
15.524,-0.166,0.168
15.528,-0.166,0.168
15.532,-0.162,0.16
15.536,-0.158,0.152
15.54,-0.154,0.152
15.544,-0.15,0.144
15.548,-0.146,0.136
15.552,-0.142,0.128
15.556,-0.142,0.12
15.56,-0.134,0.112
15.564,-0.134,0.112
15.568,-0.13,0.104
15.572,-0.122,0.104
15.576,-0.118,0.096
15.58,-0.118,0.08800001
15.584,-0.11,0.08800001
15.588,-0.102,0.072
15.592,-0.098,0.064
15.596,-0.098,0.064
15.6,-0.086,0.064
15.604,-0.086,0.048
15.608,-0.078,0.04
15.612,-0.074,0.032
15.616,-0.07,0.032
15.62,-0.066,0.016
15.624,-0.062,0.008
15.628,-0.054,0
15.632,-0.05,0
15.636,-0.046,-0.008
15.64,-0.038,-0.016
15.644,-0.03,-0.024
15.648,-0.026,-0.032
15.652,-0.018,-0.04
15.656,-0.018,-0.048
15.66,-0.014,-0.056
15.664,-0.01,-0.064
15.668,-0.006,-0.064
15.672,0.006,-0.072
15.676,0.01,-0.08000001
15.68,0.014,-0.08800001
15.684,0.022,-0.104
15.688,0.026,-0.104
15.692,0.026,-0.104
15.696,0.038,-0.112
15.7,0.042,-0.12
15.704,0.046,-0.128
15.708,0.05,-0.128
15.712,0.054,-0.136
15.716,0.066,-0.144
15.72,0.066,-0.152
15.724,0.07,-0.152
15.728,0.078,-0.152
15.732,0.078,-0.168
15.736,0.086,-0.176
15.74,0.09,-0.176
15.744,0.094,-0.184
15.748,0.098,-0.184
15.752,0.106,-0.192
15.756,0.11,-0.2
15.76,0.118,-0.2
15.764,0.122,-0.208
15.768,0.126,-0.208
15.772,0.134,-0.216
15.776,0.134,-0.224
15.78,0.138,-0.224
15.784,0.142,-0.232
15.788,0.15,-0.232
15.792,0.154,-0.24
15.796,0.154,-0.248
15.8,0.158,-0.24
15.804,0.166,-0.248
15.808,0.17,-0.256
15.812,0.174,-0.256
15.816,0.182,-0.264
15.82,0.182,-0.264
15.824,0.186,-0.264
15.828,0.194,-0.264
15.832,0.194,-0.264
15.836,0.194,-0.272
15.84,0.202,-0.28
15.844,0.202,-0.272
15.848,0.206,-0.28
15.852,0.21,-0.28
15.856,0.214,-0.288
15.86,0.214,-0.28
15.864,0.222,-0.28
15.868,0.222,-0.288
15.872,0.222,-0.288
15.876,0.226,-0.28
15.88,0.226,-0.288
15.884,0.23,-0.296
15.888,0.23,-0.296
15.892,0.234,-0.296
15.896,0.234,-0.296
15.9,0.238,-0.296
15.904,0.242,-0.288
15.908,0.238,-0.288
15.912,0.242,-0.288
15.916,0.246,-0.288
15.92,0.246,-0.296
15.924,0.25,-0.288
15.928,0.246,-0.288
15.932,0.246,-0.28
15.936,0.25,-0.288
15.94,0.25,-0.272
15.944,0.25,-0.28
15.948,0.25,-0.28
15.952,0.25,-0.28
15.956,0.25,-0.28
15.96,0.25,-0.28
15.964,0.254,-0.272
15.968,0.254,-0.28
15.972,0.254,-0.264
15.976,0.25,-0.264
15.98,0.25,-0.264
15.984,0.254,-0.256
15.988,0.25,-0.256
15.992,0.246,-0.248
15.996,0.246,-0.248
16,0.246,-0.248
16.004,0.242,-0.248
16.008,0.242,-0.232
16.012,0.238,-0.232
16.016,0.238,-0.224
16.02,0.238,-0.224
16.024,0.234,-0.224
16.028,0.234,-0.216
16.032,0.234,-0.216
16.036,0.226,-0.208
16.04,0.226,-0.2
16.044,0.222,-0.2
16.048,0.222,-0.192
16.052,0.218,-0.184
16.056,0.218,-0.176
16.06,0.214,-0.184
16.064,0.206,-0.168
16.068,0.206,-0.168
16.072,0.202,-0.168
16.076,0.198,-0.16
16.08,0.194,-0.16
16.084,0.194,-0.144
16.088,0.19,-0.136
16.092,0.186,-0.136
16.096,0.178,-0.128
16.1,0.182,-0.128
16.104,0.174,-0.12
16.108,0.17,-0.12
16.112,0.162,-0.104
16.116,0.162,-0.096
16.12,0.154,-0.08800001
16.124,0.15,-0.08800001
16.128,0.146,-0.08000001
16.132,0.142,-0.072
16.136,0.134,-0.072
16.14,0.13,-0.064
16.144,0.126,-0.056
16.148,0.122,-0.048
16.152,0.118,-0.04
16.156,0.114,-0.04
16.16,0.102,-0.032
16.164,0.098,-0.032
16.168,0.098,-0.024
16.172,0.09,-0.008
16.176,0.082,-0.008
16.18,0.078,0
16.184,0.07,0.008
16.188,0.07,0.016
16.192,0.066,0.024
16.196,0.058,0.024
16.2,0.054,0.032
16.204,0.046,0.048
16.208,0.038,0.048
16.212,0.03,0.056
16.216,0.026,0.064
16.22,0.022,0.072
16.224,0.014,0.072
16.228,0.01,0.08800001
16.232,0.002,0.08000001
16.236,-0.002,0.08800001
16.24,-0.01,0.08800001
16.244,-0.014,0.096
16.248,-0.022,0.104
16.252,-0.03,0.112
16.256,-0.034,0.12
16.26,-0.042,0.12
16.264,-0.046,0.12
16.268,-0.058,0.136
16.272,-0.058,0.136
16.276,-0.066,0.144
16.28,-0.07,0.144
16.284,-0.078,0.152
16.288,-0.082,0.16
16.292,-0.09,0.168
16.296,-0.094,0.176
16.3,-0.102,0.176
16.304,-0.11,0.176
16.308,-0.114,0.184
16.312,-0.122,0.184
16.316,-0.126,0.192
16.32,-0.13,0.192
16.324,-0.142,0.2
16.328,-0.142,0.2
16.332,-0.15,0.208
16.336,-0.154,0.208
16.34,-0.158,0.216
16.344,-0.166,0.224
16.348,-0.17,0.224
16.352,-0.174,0.224
16.356,-0.178,0.232
16.36,-0.186,0.232
16.364,-0.186,0.232
16.368,-0.19,0.232
16.372,-0.194,0.24
16.376,-0.198,0.24
16.38,-0.202,0.248
16.384,-0.21,0.24
16.388,-0.214,0.248
16.392,-0.218,0.256
16.396,-0.218,0.248
16.4,-0.222,0.256
16.404,-0.226,0.256
16.408,-0.234,0.264
16.412,-0.238,0.256
16.416,-0.234,0.264
16.42,-0.242,0.256
16.424,-0.246,0.256
16.428,-0.246,0.264
16.432,-0.25,0.256
16.436,-0.254,0.264
16.44,-0.254,0.264
16.444,-0.254,0.264
16.448,-0.262,0.264
16.452,-0.262,0.272
16.456,-0.262,0.264
16.46,-0.266,0.264
16.464,-0.266,0.264
16.468,-0.262,0.264
16.472,-0.27,0.264
16.476,-0.27,0.264
16.48,-0.274,0.264
16.484,-0.274,0.256
16.488,-0.274,0.264
16.492,-0.274,0.248
16.496,-0.278,0.256
16.5,-0.278,0.256
16.504,-0.278,0.248
16.508,-0.274,0.248
16.512,-0.274,0.248
16.516,-0.27,0.248
16.52,-0.274,0.24
16.524,-0.27,0.248
16.528,-0.27,0.24
16.532,-0.27,0.232
16.536,-0.27,0.232
16.54,-0.266,0.232
16.544,-0.266,0.224
16.548,-0.262,0.224
16.552,-0.262,0.224
16.556,-0.258,0.216
16.56,-0.254,0.208
16.564,-0.254,0.208
16.568,-0.25,0.2
16.572,-0.25,0.2
16.576,-0.246,0.2
16.58,-0.242,0.192
16.584,-0.238,0.192
16.588,-0.234,0.192
16.592,-0.23,0.184
16.596,-0.226,0.176
16.6,-0.222,0.176
16.604,-0.222,0.168
16.608,-0.214,0.16
16.612,-0.214,0.16
16.616,-0.206,0.152
16.62,-0.206,0.144
16.624,-0.198,0.144
16.628,-0.194,0.144
16.632,-0.19,0.136
16.636,-0.186,0.128
16.64,-0.182,0.12
16.644,-0.178,0.112
16.648,-0.174,0.12
16.652,-0.166,0.104
16.656,-0.158,0.104
16.66,-0.154,0.096
16.664,-0.154,0.096
16.668,-0.142,0.08800001
16.672,-0.138,0.08800001
16.676,-0.134,0.08000001
16.68,-0.126,0.072
16.684,-0.122,0.072
16.688,-0.114,0.064
16.692,-0.106,0.056
16.696,-0.102,0.056
16.7,-0.098,0.048
16.704,-0.09,0.04
16.708,-0.082,0.032
16.712,-0.074,0.024
16.716,-0.07,0.024
16.72,-0.062,0.016
16.724,-0.058,0.008
16.728,-0.05,0.008
16.732,-0.046,0
16.736,-0.034,-0.008
16.74,-0.034,-0.016
16.744,-0.022,-0.016
16.748,-0.018,-0.032
16.752,-0.01,-0.032
16.756,-0.002,-0.032
16.76,0.006,-0.048
16.764,0.01,-0.048
16.768,0.018,-0.048
16.772,0.026,-0.048
16.776,0.034,-0.064
16.78,0.038,-0.072
16.784,0.046,-0.072
16.788,0.054,-0.08000001
16.792,0.058,-0.08800001
16.796,0.066,-0.096
16.8,0.07,-0.096
16.804,0.074,-0.104
16.808,0.078,-0.112
16.812,0.09,-0.112
16.816,0.094,-0.12
16.82,0.102,-0.12
16.824,0.106,-0.128
16.828,0.114,-0.144
16.832,0.122,-0.136
16.836,0.126,-0.152
16.84,0.13,-0.144
16.844,0.138,-0.152
16.848,0.146,-0.16
16.852,0.15,-0.168
16.856,0.158,-0.168
16.86,0.158,-0.168
16.864,0.17,-0.168
16.868,0.174,-0.176
16.872,0.178,-0.184
16.876,0.182,-0.184
16.88,0.19,-0.192
16.884,0.194,-0.192
16.888,0.202,-0.2
16.892,0.202,-0.2
16.896,0.206,-0.2
16.9,0.21,-0.208
16.904,0.214,-0.216
16.908,0.218,-0.2
16.912,0.226,-0.216
16.916,0.226,-0.224
16.92,0.23,-0.224
16.924,0.234,-0.224
16.928,0.238,-0.224
16.932,0.242,-0.224
16.936,0.246,-0.232
16.94,0.25,-0.232
16.944,0.254,-0.232
16.948,0.258,-0.24
16.952,0.258,-0.24
16.956,0.258,-0.24
16.96,0.266,-0.24
16.964,0.27,-0.24
16.968,0.27,-0.24
16.972,0.27,-0.248
16.976,0.27,-0.248
16.98,0.274,-0.248
16.984,0.278,-0.248
16.988,0.278,-0.256
16.992,0.282,-0.256
16.996,0.282,-0.248
17,0.282,-0.256
17.004,0.286,-0.248
17.008,0.286,-0.248
17.012,0.286,-0.256
17.016,0.286,-0.256
17.02,0.29,-0.256
17.024,0.286,-0.248
17.028,0.29,-0.256
17.032,0.29,-0.256
17.036,0.29,-0.248
17.04,0.286,-0.248
17.044,0.29,-0.248
17.048,0.286,-0.248
17.052,0.29,-0.24
17.056,0.282,-0.248
17.06,0.286,-0.248
17.064,0.286,-0.248
17.068,0.278,-0.24
17.072,0.278,-0.24
17.076,0.278,-0.232
17.08,0.278,-0.232
17.084,0.274,-0.232
17.088,0.274,-0.232
17.092,0.27,-0.224
17.096,0.27,-0.224
17.1,0.262,-0.224
17.104,0.262,-0.216
17.108,0.262,-0.216
17.112,0.258,-0.216
17.116,0.258,-0.208
17.12,0.254,-0.2
17.124,0.246,-0.208
17.128,0.246,-0.2
17.132,0.246,-0.2
17.136,0.238,-0.192
17.14,0.234,-0.192
17.144,0.23,-0.192
17.148,0.23,-0.184
17.152,0.222,-0.176
17.156,0.218,-0.168
17.16,0.214,-0.168
17.164,0.21,-0.168
17.168,0.206,-0.16
17.172,0.202,-0.16
17.176,0.198,-0.16
17.18,0.194,-0.16
17.184,0.19,-0.144
17.188,0.182,-0.136
17.192,0.174,-0.144
17.196,0.17,-0.144
17.2,0.166,-0.128
17.204,0.158,-0.128
17.208,0.15,-0.12
17.212,0.15,-0.12
17.216,0.142,-0.104
17.22,0.138,-0.104
17.224,0.13,-0.096
17.228,0.13,-0.096
17.232,0.118,-0.08800001
17.236,0.114,-0.08800001
17.24,0.106,-0.08000001
17.244,0.102,-0.072
17.248,0.09,-0.064
17.252,0.086,-0.064
17.256,0.082,-0.056
17.26,0.074,-0.048
17.264,0.07,-0.04
17.268,0.062,-0.04
17.272,0.058,-0.032
17.276,0.05,-0.032
17.28,0.042,-0.024
17.284,0.038,-0.016
17.288,0.03,-0.016
17.292,0.022,-0.008
17.296,0.018,0
17.3,0.006,0.008
17.304,0.002,0.016
17.308,-0.01,0.016
17.312,-0.014,0.024
17.316,-0.022,0.032
17.32,-0.03,0.04
17.324,-0.034,0.04
17.328,-0.042,0.048
17.332,-0.046,0.056
17.336,-0.054,0.064
17.34,-0.062,0.064
17.344,-0.066,0.072
17.348,-0.074,0.08000001
17.352,-0.082,0.08000001
17.356,-0.09,0.08800001
17.36,-0.094,0.08800001
17.364,-0.102,0.096
17.368,-0.11,0.096
17.372,-0.114,0.104
17.376,-0.118,0.104
17.38,-0.13,0.112
17.384,-0.134,0.12
17.388,-0.138,0.12
17.392,-0.146,0.128
17.396,-0.154,0.128
17.4,-0.158,0.128
17.404,-0.166,0.144
17.408,-0.17,0.144
17.412,-0.174,0.152
17.416,-0.182,0.152
17.42,-0.186,0.16
17.424,-0.19,0.16
17.428,-0.19,0.168
17.432,-0.198,0.168
17.436,-0.202,0.168
17.44,-0.206,0.176
17.444,-0.214,0.184
17.448,-0.218,0.192
17.452,-0.226,0.184
17.456,-0.226,0.192
17.46,-0.23,0.2
17.464,-0.234,0.208
17.468,-0.238,0.208
17.472,-0.242,0.208
17.476,-0.246,0.208
17.48,-0.25,0.208
17.484,-0.254,0.216
17.488,-0.258,0.216
17.492,-0.262,0.216
17.496,-0.262,0.224
17.5,-0.266,0.224
17.504,-0.27,0.224
17.508,-0.27,0.232
17.512,-0.274,0.232
17.516,-0.274,0.232
17.52,-0.278,0.24
17.524,-0.278,0.224
17.528,-0.282,0.232
17.532,-0.282,0.232
17.536,-0.278,0.24
17.54,-0.286,0.24
17.544,-0.282,0.24
17.548,-0.29,0.24
17.552,-0.286,0.24
17.556,-0.286,0.24
17.56,-0.286,0.24
17.564,-0.29,0.24
17.568,-0.286,0.248
17.572,-0.286,0.24
17.576,-0.29,0.248
17.58,-0.286,0.248
17.584,-0.286,0.248
17.588,-0.282,0.24
17.592,-0.282,0.248
17.596,-0.282,0.24
17.6,-0.282,0.24
17.604,-0.274,0.24
17.608,-0.278,0.24
17.612,-0.274,0.24
17.616,-0.274,0.232
17.62,-0.27,0.24
17.624,-0.262,0.232
17.628,-0.262,0.232
17.632,-0.262,0.232
17.636,-0.258,0.232
17.64,-0.258,0.232
17.644,-0.254,0.224
17.648,-0.25,0.224
17.652,-0.246,0.224
17.656,-0.238,0.224
17.66,-0.242,0.216
17.664,-0.23,0.216
17.668,-0.226,0.208
17.672,-0.226,0.208
17.676,-0.218,0.2
17.68,-0.214,0.208
17.684,-0.214,0.2
17.688,-0.206,0.192
17.692,-0.202,0.2
17.696,-0.198,0.2
17.7,-0.19,0.184
17.704,-0.19,0.184
17.708,-0.186,0.176
17.712,-0.178,0.176
17.716,-0.178,0.176
17.72,-0.17,0.168
17.724,-0.166,0.16
17.728,-0.158,0.152
17.732,-0.15,0.152
17.736,-0.142,0.152
17.74,-0.138,0.144
17.744,-0.134,0.144
17.748,-0.126,0.144
17.752,-0.122,0.136
17.756,-0.114,0.136
17.76,-0.106,0.128
17.764,-0.102,0.128
17.768,-0.098,0.112
17.772,-0.09,0.12
17.776,-0.082,0.104
17.78,-0.074,0.096
17.784,-0.066,0.096
17.788,-0.062,0.096
17.792,-0.054,0.08800001
17.796,-0.05,0.08800001
17.8,-0.042,0.08000001
17.804,-0.038,0.08000001
17.808,-0.026,0.072
17.812,-0.022,0.064
17.816,-0.014,0.064
17.82,-0.01,0.048
17.824,-0.002,0.048
17.828,0.006,0.048
17.832,0.014,0.04
17.836,0.018,0.04
17.84,0.026,0.032
17.844,0.03,0.016
17.848,0.038,0.016
17.852,0.05,0
17.856,0.054,0.008
17.86,0.058,0
17.864,0.066,-0.016
17.868,0.07,-0.016
17.872,0.078,-0.016
17.876,0.082,-0.032
17.88,0.094,-0.032
17.884,0.098,-0.04
17.888,0.102,-0.04
17.892,0.106,-0.048
17.896,0.114,-0.056
17.9,0.122,-0.064
17.904,0.126,-0.064
17.908,0.134,-0.072
17.912,0.134,-0.08000001
17.916,0.142,-0.08800001
17.92,0.15,-0.08800001
17.924,0.154,-0.096
17.928,0.158,-0.104
17.932,0.162,-0.104
17.936,0.17,-0.112
17.94,0.178,-0.12
17.944,0.178,-0.128
17.948,0.186,-0.128
17.952,0.19,-0.128
17.956,0.194,-0.144
17.96,0.198,-0.144
17.964,0.202,-0.136
17.968,0.206,-0.16
17.972,0.21,-0.16
17.976,0.21,-0.16
17.98,0.214,-0.168
17.984,0.226,-0.168
17.988,0.226,-0.168
17.992,0.226,-0.176
17.996,0.23,-0.176
18,0.234,-0.184
18.004,0.238,-0.184
18.008,0.246,-0.184
18.012,0.246,-0.208
18.016,0.25,-0.2
18.02,0.25,-0.2
18.024,0.254,-0.208
18.028,0.254,-0.224
18.032,0.258,-0.208
18.036,0.262,-0.224
18.04,0.262,-0.224
18.044,0.266,-0.224
18.048,0.266,-0.232
18.052,0.266,-0.232
18.056,0.266,-0.232
18.06,0.266,-0.24
18.064,0.27,-0.24
18.068,0.27,-0.24
18.072,0.27,-0.248
18.076,0.27,-0.24
18.08,0.27,-0.248
18.084,0.27,-0.248
18.088,0.278,-0.248
18.092,0.274,-0.248
18.096,0.274,-0.256
18.1,0.274,-0.256
18.104,0.274,-0.256
18.108,0.274,-0.264
18.112,0.27,-0.256
18.116,0.27,-0.256
18.12,0.27,-0.256
18.124,0.266,-0.264
18.128,0.27,-0.264
18.132,0.266,-0.264
18.136,0.262,-0.264
18.14,0.262,-0.264
18.144,0.262,-0.256
18.148,0.258,-0.264
18.152,0.258,-0.264
18.156,0.254,-0.264
18.16,0.254,-0.264
18.164,0.25,-0.256
18.168,0.25,-0.256
18.172,0.246,-0.256
18.176,0.242,-0.256
18.18,0.242,-0.264
18.184,0.242,-0.256
18.188,0.234,-0.256
18.192,0.234,-0.256
18.196,0.23,-0.248
18.2,0.222,-0.248
18.204,0.222,-0.248
18.208,0.218,-0.24
18.212,0.214,-0.24
18.216,0.21,-0.24
18.22,0.21,-0.24
18.224,0.206,-0.24
18.228,0.198,-0.224
18.232,0.198,-0.232
18.236,0.19,-0.224
18.24,0.186,-0.224
18.244,0.182,-0.216
18.248,0.178,-0.208
18.252,0.17,-0.208
18.256,0.17,-0.2
18.26,0.166,-0.208
18.264,0.158,-0.2
18.268,0.154,-0.2
18.272,0.15,-0.192
18.276,0.146,-0.184
18.28,0.138,-0.184
18.284,0.13,-0.176
18.288,0.13,-0.176
18.292,0.122,-0.168
18.296,0.118,-0.168
18.3,0.11,-0.168
18.304,0.106,-0.16
18.308,0.098,-0.16
18.312,0.094,-0.144
18.316,0.09,-0.144
18.32,0.082,-0.144
18.324,0.074,-0.136
18.328,0.07,-0.128
18.332,0.066,-0.128
18.336,0.062,-0.12
18.34,0.054,-0.112
18.344,0.05,-0.104
18.348,0.042,-0.096
18.352,0.042,-0.096
18.356,0.03,-0.08800001
18.36,0.026,-0.08800001
18.364,0.022,-0.08000001
18.368,0.01,-0.072
18.372,0.006,-0.064
18.376,-0.002,-0.056
18.38,-0.006,-0.056
18.384,-0.014,-0.048
18.388,-0.018,-0.04
18.392,-0.022,-0.032
18.396,-0.03,-0.016
18.4,-0.034,-0.024
18.404,-0.042,-0.008
18.408,-0.046,-0.008
18.412,-0.054,0
18.416,-0.062,0.008
18.42,-0.062,0.008
18.424,-0.07,0.016
18.428,-0.078,0.024
18.432,-0.082,0.032
18.436,-0.09,0.032
18.44,-0.094,0.04
18.444,-0.098,0.048
18.448,-0.106,0.056
18.452,-0.11,0.056
18.456,-0.114,0.064
18.46,-0.122,0.08000001
18.464,-0.126,0.08000001
18.468,-0.134,0.08800001
18.472,-0.138,0.08800001
18.476,-0.142,0.096
18.48,-0.146,0.096
18.484,-0.15,0.104
18.488,-0.158,0.112
18.492,-0.166,0.112
18.496,-0.166,0.12
18.5,-0.17,0.128
18.504,-0.174,0.128
18.508,-0.178,0.144
18.512,-0.182,0.144
18.516,-0.186,0.144
18.52,-0.186,0.16
18.524,-0.19,0.16
18.528,-0.194,0.168
18.532,-0.198,0.176
18.536,-0.202,0.168
18.54,-0.202,0.184
18.544,-0.21,0.184
18.548,-0.21,0.192
18.552,-0.21,0.192
18.556,-0.218,0.2
18.56,-0.218,0.208
18.564,-0.218,0.208
18.568,-0.222,0.216
18.572,-0.226,0.216
18.576,-0.23,0.216
18.58,-0.23,0.224
18.584,-0.23,0.224
18.588,-0.23,0.232
18.592,-0.234,0.232
18.596,-0.23,0.232
18.6,-0.238,0.24
18.604,-0.238,0.24
18.608,-0.238,0.24
18.612,-0.238,0.24
18.616,-0.238,0.256
18.62,-0.242,0.248
18.624,-0.242,0.256
18.628,-0.242,0.256
18.632,-0.242,0.256
18.636,-0.242,0.256
18.64,-0.242,0.256
18.644,-0.246,0.264
18.648,-0.242,0.256
18.652,-0.238,0.272
18.656,-0.242,0.264
18.66,-0.238,0.264
18.664,-0.238,0.264
18.668,-0.234,0.272
18.672,-0.234,0.264
18.676,-0.234,0.272
18.68,-0.23,0.272
18.684,-0.23,0.272
18.688,-0.23,0.272
18.692,-0.23,0.272
18.696,-0.222,0.264
18.7,-0.222,0.272
18.704,-0.222,0.272
18.708,-0.222,0.272
18.712,-0.214,0.272
18.716,-0.214,0.272
18.72,-0.21,0.272
18.724,-0.21,0.272
18.728,-0.202,0.264
18.732,-0.202,0.264
18.736,-0.202,0.256
18.74,-0.194,0.264
18.744,-0.194,0.256
18.748,-0.19,0.264
18.752,-0.186,0.256
18.756,-0.186,0.248
18.76,-0.182,0.248
18.764,-0.178,0.248
18.768,-0.174,0.248
18.772,-0.17,0.248
18.776,-0.166,0.24
18.78,-0.162,0.24
18.784,-0.158,0.232
18.788,-0.154,0.232
18.792,-0.15,0.224
18.796,-0.146,0.224
18.8,-0.138,0.224
18.804,-0.134,0.208
18.808,-0.13,0.216
18.812,-0.126,0.216
18.816,-0.122,0.208
18.82,-0.114,0.2
18.824,-0.114,0.192
18.828,-0.102,0.192
18.832,-0.102,0.192
18.836,-0.098,0.184
18.84,-0.09,0.176
18.844,-0.082,0.176
18.848,-0.082,0.168
18.852,-0.078,0.16
18.856,-0.07,0.152
18.86,-0.062,0.152
18.864,-0.058,0.152
18.868,-0.058,0.144
18.872,-0.05,0.136
18.876,-0.042,0.136
18.88,-0.038,0.128
18.884,-0.034,0.12
18.888,-0.03,0.112
18.892,-0.022,0.104
18.896,-0.018,0.096
18.9,-0.006,0.096
18.904,-0.01,0.08800001
18.908,-0.002,0.08800001
18.912,0.006,0.08000001
18.916,0.01,0.072
18.92,0.014,0.064
18.924,0.022,0.064
18.928,0.026,0.056
18.932,0.03,0.048
18.936,0.034,0.048
18.94,0.038,0.032
18.944,0.046,0.032
18.948,0.054,0.024
18.952,0.058,0.008
18.956,0.062,0.008
18.96,0.066,0
18.964,0.07,-0.008
18.968,0.074,-0.008
18.972,0.078,-0.024
18.976,0.086,-0.024
18.98,0.09,-0.032
18.984,0.094,-0.04
18.988,0.098,-0.048
18.992,0.102,-0.056
18.996,0.106,-0.064
19,0.106,-0.064
19.004,0.114,-0.072
19.008,0.122,-0.072
19.012,0.122,-0.08000001
19.016,0.13,-0.08800001
19.02,0.134,-0.104
19.024,0.138,-0.112
19.028,0.138,-0.112
19.032,0.146,-0.12
19.036,0.146,-0.128
19.04,0.15,-0.136
19.044,0.158,-0.136
19.048,0.162,-0.144
19.052,0.162,-0.152
19.056,0.166,-0.16
19.06,0.17,-0.168
19.064,0.174,-0.168
19.068,0.178,-0.168
19.072,0.178,-0.176
19.076,0.182,-0.176
19.08,0.182,-0.184
19.084,0.19,-0.192
19.088,0.19,-0.192
19.092,0.19,-0.2
19.096,0.194,-0.208
19.1,0.194,-0.216
19.104,0.198,-0.216
19.108,0.198,-0.224
19.112,0.202,-0.224
19.116,0.202,-0.232
19.12,0.206,-0.232
19.124,0.21,-0.24
19.128,0.206,-0.248
19.132,0.21,-0.248
19.136,0.21,-0.256
19.14,0.214,-0.256
19.144,0.218,-0.256
19.148,0.214,-0.264
19.152,0.218,-0.264
19.156,0.218,-0.264
19.16,0.218,-0.272
19.164,0.214,-0.272
19.168,0.218,-0.272
19.172,0.222,-0.28
19.176,0.218,-0.28
19.18,0.222,-0.28
19.184,0.218,-0.28
19.188,0.222,-0.288
19.192,0.222,-0.288
19.196,0.222,-0.288
19.2,0.218,-0.296
19.204,0.218,-0.288
19.208,0.218,-0.288
19.212,0.218,-0.288
19.216,0.218,-0.296
19.22,0.218,-0.296
19.224,0.214,-0.296
19.228,0.218,-0.288
19.232,0.214,-0.296
19.236,0.214,-0.296
19.24,0.21,-0.296
19.244,0.21,-0.296
19.248,0.21,-0.296
19.252,0.21,-0.296
19.256,0.202,-0.296
19.26,0.206,-0.296
19.264,0.198,-0.296
19.268,0.202,-0.296
19.272,0.198,-0.288
19.276,0.194,-0.288
19.28,0.194,-0.28
19.284,0.194,-0.28
19.288,0.19,-0.272
19.292,0.19,-0.28
19.296,0.186,-0.28
19.3,0.182,-0.272
19.304,0.182,-0.28
19.308,0.182,-0.264
19.312,0.174,-0.264
19.316,0.17,-0.264
19.32,0.17,-0.264
19.324,0.166,-0.256
19.328,0.162,-0.248
19.332,0.162,-0.248
19.336,0.158,-0.24
19.34,0.154,-0.24
19.344,0.15,-0.24
19.348,0.146,-0.232
19.352,0.142,-0.224
19.356,0.138,-0.232
19.36,0.134,-0.216
19.364,0.134,-0.216
19.368,0.13,-0.208
19.372,0.126,-0.208
19.376,0.122,-0.2
19.38,0.118,-0.192
19.384,0.114,-0.2
19.388,0.11,-0.184
19.392,0.106,-0.176
19.396,0.102,-0.176
19.4,0.094,-0.168
19.404,0.094,-0.168
19.408,0.086,-0.152
19.412,0.082,-0.152
19.416,0.078,-0.144
19.42,0.078,-0.144
19.424,0.07,-0.128
19.428,0.07,-0.12
19.432,0.066,-0.12
19.436,0.058,-0.12
19.44,0.058,-0.104
19.444,0.054,-0.104
19.448,0.046,-0.096
19.452,0.046,-0.096
19.456,0.034,-0.08000001
19.46,0.03,-0.072
19.464,0.026,-0.064
19.468,0.026,-0.056
19.472,0.018,-0.048
19.476,0.014,-0.048
19.48,0.01,-0.032
19.484,0.006,-0.032
19.488,-0.002,-0.024
19.492,-0.002,-0.016
19.496,-0.006,-0.008
19.5,-0.014,0
19.504,-0.014,0.008
19.508,-0.022,0.008
19.512,-0.026,0.024
19.516,-0.03,0.024
19.52,-0.038,0.032
19.524,-0.038,0.032
19.528,-0.042,0.048
19.532,-0.05,0.056
19.536,-0.054,0.056
19.54,-0.062,0.072
19.544,-0.058,0.072
19.548,-0.062,0.08800001
19.552,-0.07,0.08800001
19.556,-0.074,0.08800001
19.56,-0.078,0.104
19.564,-0.082,0.104
19.568,-0.086,0.104
19.572,-0.094,0.12
19.576,-0.094,0.128
19.58,-0.098,0.128
19.584,-0.102,0.144
19.588,-0.11,0.144
19.592,-0.11,0.152
19.596,-0.114,0.16
19.6,-0.118,0.16
19.604,-0.122,0.168
19.608,-0.122,0.168
19.612,-0.126,0.176
19.616,-0.134,0.184
19.62,-0.134,0.192
19.624,-0.134,0.192
19.628,-0.142,0.2
19.632,-0.146,0.208
19.636,-0.146,0.216
19.64,-0.154,0.208
19.644,-0.154,0.216
19.648,-0.154,0.216
19.652,-0.162,0.224
19.656,-0.162,0.224
19.66,-0.166,0.24
19.664,-0.17,0.24
19.668,-0.166,0.24
19.672,-0.17,0.24
19.676,-0.17,0.248
19.68,-0.178,0.256
19.684,-0.178,0.264
19.688,-0.178,0.256
19.692,-0.178,0.264
19.696,-0.182,0.264
19.7,-0.182,0.264
19.704,-0.186,0.272
19.708,-0.186,0.28
19.712,-0.186,0.272
19.716,-0.19,0.28
19.72,-0.19,0.28
19.724,-0.19,0.28
19.728,-0.19,0.28
19.732,-0.19,0.288
19.736,-0.19,0.288
19.74,-0.19,0.288
19.744,-0.19,0.288
19.748,-0.194,0.288
19.752,-0.194,0.288
19.756,-0.194,0.288
19.76,-0.194,0.288
19.764,-0.194,0.288
19.768,-0.194,0.296
19.772,-0.19,0.296
19.776,-0.194,0.296
19.78,-0.19,0.288
19.784,-0.194,0.296
19.788,-0.19,0.288
19.792,-0.194,0.296
19.796,-0.194,0.288
19.8,-0.19,0.288
19.804,-0.19,0.288
19.808,-0.19,0.288
19.812,-0.186,0.288
19.816,-0.186,0.288
19.82,-0.186,0.28
19.824,-0.186,0.288
19.828,-0.186,0.28
19.832,-0.182,0.272
19.836,-0.182,0.272
19.84,-0.182,0.272
19.844,-0.182,0.264
19.848,-0.178,0.256
19.852,-0.174,0.264
19.856,-0.174,0.256
19.86,-0.166,0.256
19.864,-0.17,0.248
19.868,-0.166,0.248
19.872,-0.162,0.24
19.876,-0.162,0.24
19.88,-0.154,0.232
19.884,-0.158,0.232
19.888,-0.15,0.224
19.892,-0.15,0.224
19.896,-0.146,0.232
19.9,-0.142,0.208
19.904,-0.142,0.208
19.908,-0.134,0.208
19.912,-0.134,0.2
19.916,-0.13,0.192
19.92,-0.126,0.192
19.924,-0.126,0.184
19.928,-0.118,0.176
19.932,-0.114,0.168
19.936,-0.114,0.16
19.94,-0.11,0.16
19.944,-0.106,0.152
19.948,-0.102,0.152
19.952,-0.098,0.144
19.956,-0.094,0.136
19.96,-0.094,0.136
19.964,-0.086,0.128
19.968,-0.082,0.12
19.972,-0.074,0.112
19.976,-0.078,0.104
19.98,-0.07,0.104
19.984,-0.07,0.096
19.988,-0.062,0.096
19.992,-0.062,0.08800001
19.996,-0.054,0.08000001
