Model,MDO34,
Firmware Version,CF:91.1CT FV:v1.6.0,
,,
Waveform Type,ANALOG,ANALOG
Point Format,Y,Y
Horizontal Units,"s","s"
Horizontal Scale,4,4
Horizontal Delay,0,0
Sample Interval,0.004,0.004
Record Length,10000,10000
Gating,0.0% to 100.0%,0.0% to 100.0%
Probe Attenuation,1X,1X
Vertical Units,"V","V"
Vertical Offset,46.5,52
Vertical Scale,0.1,0.2
Vertical Position,1.86,2.08
,,
,,
,,
Label,"",""
TIME,CH1,CH2
-20,0.002,-0.176
-19.996,0.002,-0.184
-19.992,0.006,-0.176
-19.988,0.002,-0.176
-19.984,0.006,-0.176
-19.98,0.006,-0.176
-19.976,0.002,-0.176
-19.972,0.002,-0.176
-19.968,0.002,-0.168
-19.964,0.002,-0.184
-19.96,0.002,-0.176
-19.956,0.002,-0.176
-19.952,0.006,-0.176
-19.948,-0.002,-0.176
-19.944,-0.002,-0.176
-19.94,0.002,-0.176
-19.936,0.002,-0.176
-19.932,0.002,-0.168
-19.928,0.002,-0.168
-19.924,-0.002,-0.176
-19.92,0.002,-0.168
-19.916,-0.002,-0.176
-19.912,-0.002,-0.168
-19.908,0.002,-0.168
-19.904,0.002,-0.168
-19.9,0.002,-0.168
-19.896,0.002,-0.168
-19.892,-0.002,-0.176
-19.888,0.002,-0.168
-19.884,-0.002,-0.168
-19.88,-0.002,-0.168
-19.876,-0.002,-0.168
-19.872,-0.002,-0.168
-19.868,0.002,-0.168
-19.864,0.002,-0.168
-19.86,-0.002,-0.176
-19.856,0.002,-0.168
-19.852,0.002,-0.168
-19.848,0.006,-0.168
-19.844,-0.002,-0.168
-19.84,0.002,-0.168
-19.836,-0.002,-0.168
-19.832,-0.002,-0.16
-19.828,-0.002,-0.16
-19.824,0.002,-0.16
-19.82,0.002,-0.16
-19.816,0.002,-0.168
-19.812,0.002,-0.168
-19.808,0.002,-0.168
-19.804,-0.002,-0.168
-19.8,0.002,-0.168
-19.796,0.002,-0.168
-19.792,0.002,-0.168
-19.788,0.002,-0.16
-19.784,0.002,-0.16
-19.78,0.002,-0.16
-19.776,0.002,-0.16
-19.772,0.002,-0.16
-19.768,0.002,-0.16
-19.764,-0.002,-0.16
-19.76,0.002,-0.16
-19.756,0.002,-0.16
-19.752,0.002,-0.168
-19.748,0.002,-0.16
-19.744,0.002,-0.152
-19.74,0.002,-0.16
-19.736,0.002,-0.152
-19.732,0.006,-0.16
-19.728,0.002,-0.152
-19.724,-0.002,-0.152
-19.72,-0.002,-0.16
-19.716,0.002,-0.16
-19.712,0.002,-0.16
-19.708,0.002,-0.16
-19.704,-0.002,-0.152
-19.7,0.002,-0.144
-19.696,0.002,-0.152
-19.692,-0.002,-0.152
-19.688,0.002,-0.152
-19.684,0.002,-0.152
-19.68,-0.002,-0.152
-19.676,0.002,-0.152
-19.672,0.002,-0.152
-19.668,0.002,-0.144
-19.664,-0.002,-0.144
-19.66,0.002,-0.144
-19.656,0.002,-0.144
-19.652,0.002,-0.144
-19.648,0.002,-0.152
-19.644,0.002,-0.152
-19.64,-0.002,-0.144
-19.636,0.002,-0.144
-19.632,0.002,-0.144
-19.628,-0.002,-0.144
-19.624,0.002,-0.152
-19.62,0.002,-0.152
-19.616,0.002,-0.144
-19.612,0.002,-0.144
-19.608,0.002,-0.144
-19.604,-0.002,-0.136
-19.6,0.002,-0.136
-19.596,-0.002,-0.144
-19.592,-0.002,-0.136
-19.588,-0.002,-0.136
-19.584,-0.002,-0.136
-19.58,-0.002,-0.136
-19.576,-0.002,-0.136
-19.572,0.002,-0.136
-19.568,0.002,-0.128
-19.564,0.002,-0.136
-19.56,0.002,-0.128
-19.556,0.002,-0.12
-19.552,0.002,-0.128
-19.548,0.002,-0.128
-19.544,0.002,-0.12
-19.54,-0.002,-0.128
-19.536,0.002,-0.12
-19.532,0.006,-0.12
-19.528,0.002,-0.12
-19.524,0.002,-0.112
-19.52,0.002,-0.112
-19.516,0.002,-0.112
-19.512,0.002,-0.112
-19.508,0.002,-0.112
-19.504,0.002,-0.112
-19.5,0.002,-0.112
-19.496,0.002,-0.112
-19.492,0.002,-0.112
-19.488,0.002,-0.104
-19.484,-0.002,-0.112
-19.48,0.002,-0.112
-19.476,0.002,-0.104
-19.472,-0.002,-0.104
-19.468,0.002,-0.104
-19.464,-0.002,-0.104
-19.46,0.002,-0.112
-19.456,-0.002,-0.112
-19.452,-0.002,-0.104
-19.448,-0.002,-0.104
-19.444,-0.002,-0.104
-19.44,-0.002,-0.104
-19.436,-0.002,-0.104
-19.432,-0.002,-0.112
-19.428,-0.002,-0.104
-19.424,-0.002,-0.104
-19.42,-0.002,-0.104
-19.416,-0.002,-0.104
-19.412,-0.002,-0.104
-19.408,0.002,-0.104
-19.404,-0.002,-0.104
-19.4,-0.002,-0.104
-19.396,-0.006,-0.104
-19.392,-0.002,-0.104
-19.388,0.002,-0.112
-19.384,0.002,-0.104
-19.38,0.002,-0.104
-19.376,0.002,-0.104
-19.372,0.002,-0.112
-19.368,-0.002,-0.112
-19.364,0.002,-0.104
-19.36,0.002,-0.112
-19.356,0.002,-0.112
-19.352,0.006,-0.104
-19.348,0.002,-0.104
-19.344,0.002,-0.104
-19.34,0.006,-0.104
-19.336,0.006,-0.104
-19.332,0.002,-0.104
-19.328,0.006,-0.112
-19.324,0.006,-0.104
-19.32,0.006,-0.112
-19.316,0.01,-0.104
-19.312,0.01,-0.104
-19.308,0.006,-0.112
-19.304,0.01,-0.104
-19.3,0.014,-0.112
-19.296,0.014,-0.104
-19.292,0.014,-0.104
-19.288,0.01,-0.112
-19.284,0.014,-0.112
-19.28,0.014,-0.104
-19.276,0.014,-0.104
-19.272,0.018,-0.104
-19.268,0.018,-0.112
-19.264,0.018,-0.104
-19.26,0.018,-0.104
-19.256,0.022,-0.104
-19.252,0.022,-0.104
-19.248,0.022,-0.104
-19.244,0.022,-0.096
-19.24,0.022,-0.104
-19.236,0.022,-0.104
-19.232,0.022,-0.096
-19.228,0.026,-0.104
-19.224,0.026,-0.104
-19.22,0.026,-0.104
-19.216,0.026,-0.104
-19.212,0.03,-0.112
-19.208,0.03,-0.104
-19.204,0.03,-0.104
-19.2,0.03,-0.104
-19.196,0.03,-0.104
-19.192,0.03,-0.104
-19.188,0.03,-0.104
-19.184,0.03,-0.096
-19.18,0.03,-0.104
-19.176,0.034,-0.104
-19.172,0.03,-0.104
-19.168,0.03,-0.104
-19.164,0.03,-0.104
-19.16,0.034,-0.104
-19.156,0.034,-0.096
-19.152,0.03,-0.104
-19.148,0.034,-0.104
-19.144,0.034,-0.104
-19.14,0.034,-0.096
-19.136,0.03,-0.104
-19.132,0.03,-0.096
-19.128,0.034,-0.096
-19.124,0.034,-0.104
-19.12,0.034,-0.104
-19.116,0.034,-0.104
-19.112,0.03,-0.104
-19.108,0.03,-0.104
-19.104,0.034,-0.104
-19.1,0.034,-0.104
-19.096,0.03,-0.104
-19.092,0.03,-0.104
-19.088,0.034,-0.104
-19.084,0.034,-0.104
-19.08,0.03,-0.104
-19.076,0.03,-0.104
-19.072,0.034,-0.112
-19.068,0.034,-0.104
-19.064,0.034,-0.104
-19.06,0.03,-0.104
-19.056,0.03,-0.104
-19.052,0.034,-0.104
-19.048,0.03,-0.104
-19.044,0.034,-0.104
-19.04,0.034,-0.096
-19.036,0.034,-0.104
-19.032,0.038,-0.104
-19.028,0.038,-0.104
-19.024,0.034,-0.096
-19.02,0.038,-0.096
-19.016,0.034,-0.104
-19.012,0.038,-0.104
-19.008,0.038,-0.096
-19.004,0.038,-0.096
-19,0.038,-0.096
-18.996,0.038,-0.104
-18.992,0.038,-0.096
-18.988,0.038,-0.096
-18.984,0.038,-0.104
-18.98,0.042,-0.096
-18.976,0.038,-0.104
-18.972,0.042,-0.104
-18.968,0.042,-0.104
-18.964,0.038,-0.08800001
-18.96,0.042,-0.096
-18.956,0.042,-0.08800001
-18.952,0.042,-0.096
-18.948,0.046,-0.096
-18.944,0.042,-0.096
-18.94,0.042,-0.096
-18.936,0.042,-0.096
-18.932,0.042,-0.096
-18.928,0.046,-0.096
-18.924,0.042,-0.096
-18.92,0.046,-0.096
-18.916,0.042,-0.096
-18.912,0.046,-0.096
-18.908,0.042,-0.08800001
-18.904,0.046,-0.096
-18.9,0.046,-0.096
-18.896,0.042,-0.08800001
-18.892,0.046,-0.096
-18.888,0.046,-0.096
-18.884,0.042,-0.096
-18.88,0.042,-0.08800001
-18.876,0.046,-0.096
-18.872,0.046,-0.096
-18.868,0.046,-0.096
-18.864,0.046,-0.096
-18.86,0.046,-0.096
-18.856,0.046,-0.08800001
-18.852,0.046,-0.096
-18.848,0.05,-0.104
-18.844,0.046,-0.096
-18.84,0.042,-0.096
-18.836,0.05,-0.096
-18.832,0.046,-0.096
-18.828,0.046,-0.096
-18.824,0.046,-0.096
-18.82,0.05,-0.08800001
-18.816,0.046,-0.096
-18.812,0.046,-0.096
-18.808,0.046,-0.096
-18.804,0.046,-0.08800001
-18.8,0.05,-0.104
-18.796,0.046,-0.08800001
-18.792,0.05,-0.096
-18.788,0.05,-0.08800001
-18.784,0.05,-0.08800001
-18.78,0.05,-0.096
-18.776,0.05,-0.08800001
-18.772,0.05,-0.096
-18.768,0.05,-0.08800001
-18.764,0.054,-0.08800001
-18.76,0.05,-0.08800001
-18.756,0.05,-0.08800001
-18.752,0.05,-0.08800001
-18.748,0.054,-0.08800001
-18.744,0.054,-0.08800001
-18.74,0.054,-0.08800001
-18.736,0.054,-0.08800001
-18.732,0.054,-0.08800001
-18.728,0.054,-0.08800001
-18.724,0.054,-0.08800001
-18.72,0.054,-0.08800001
-18.716,0.054,-0.08800001
-18.712,0.054,-0.08800001
-18.708,0.054,-0.08800001
-18.704,0.054,-0.08800001
-18.7,0.058,-0.08800001
-18.696,0.058,-0.08800001
-18.692,0.058,-0.08800001
-18.688,0.058,-0.08800001
-18.684,0.058,-0.08800001
-18.68,0.058,-0.08800001
-18.676,0.058,-0.08800001
-18.672,0.058,-0.08800001
-18.668,0.062,-0.08800001
-18.664,0.058,-0.08000001
-18.66,0.062,-0.08800001
-18.656,0.062,-0.08000001
-18.652,0.062,-0.08800001
-18.648,0.066,-0.08800001
-18.644,0.062,-0.08800001
-18.64,0.062,-0.08800001
-18.636,0.062,-0.08800001
-18.632,0.062,-0.08000001
-18.628,0.062,-0.08800001
-18.624,0.062,-0.08000001
-18.62,0.062,-0.08800001
-18.616,0.062,-0.08000001
-18.612,0.062,-0.08000001
-18.608,0.062,-0.08800001
-18.604,0.066,-0.08000001
-18.6,0.066,-0.08000001
-18.596,0.066,-0.08800001
-18.592,0.07,-0.08000001
-18.588,0.066,-0.08000001
-18.584,0.066,-0.08000001
-18.58,0.066,-0.08000001
-18.576,0.07,-0.08000001
-18.572,0.066,-0.08000001
-18.568,0.07,-0.08800001
-18.564,0.07,-0.08000001
-18.56,0.07,-0.08000001
-18.556,0.07,-0.08000001
-18.552,0.07,-0.08800001
-18.548,0.07,-0.072
-18.544,0.07,-0.08000001
-18.54,0.07,-0.08000001
-18.536,0.07,-0.08000001
-18.532,0.07,-0.08000001
-18.528,0.07,-0.08000001
-18.524,0.07,-0.08000001
-18.52,0.066,-0.08000001
-18.516,0.07,-0.08000001
-18.512,0.07,-0.08000001
-18.508,0.07,-0.08000001
-18.504,0.07,-0.08000001
-18.5,0.07,-0.08000001
-18.496,0.07,-0.072
-18.492,0.07,-0.08000001
-18.488,0.07,-0.08000001
-18.484,0.07,-0.08000001
-18.48,0.07,-0.08000001
-18.476,0.07,-0.072
-18.472,0.066,-0.072
-18.468,0.07,-0.072
-18.464,0.07,-0.072
-18.46,0.07,-0.08000001
-18.456,0.07,-0.08000001
-18.452,0.07,-0.08000001
-18.448,0.07,-0.08000001
-18.444,0.07,-0.08000001
-18.44,0.07,-0.072
-18.436,0.07,-0.08000001
-18.432,0.07,-0.08000001
-18.428,0.07,-0.08000001
-18.424,0.07,-0.08000001
-18.42,0.07,-0.072
-18.416,0.07,-0.08000001
-18.412,0.066,-0.08000001
-18.408,0.07,-0.08000001
-18.404,0.066,-0.072
-18.4,0.07,-0.072
-18.396,0.066,-0.072
-18.392,0.066,-0.08000001
-18.388,0.066,-0.072
-18.384,0.07,-0.072
-18.38,0.07,-0.072
-18.376,0.07,-0.08000001
-18.372,0.066,-0.072
-18.368,0.062,-0.08000001
-18.364,0.066,-0.072
-18.36,0.066,-0.072
-18.356,0.07,-0.072
-18.352,0.066,-0.072
-18.348,0.066,-0.08000001
-18.344,0.066,-0.072
-18.34,0.066,-0.064
-18.336,0.066,-0.08000001
-18.332,0.066,-0.064
-18.328,0.066,-0.072
-18.324,0.066,-0.072
-18.32,0.066,-0.072
-18.316,0.066,-0.072
-18.312,0.066,-0.072
-18.308,0.066,-0.072
-18.304,0.066,-0.064
-18.3,0.066,-0.072
-18.296,0.066,-0.072
-18.292,0.066,-0.064
-18.288,0.066,-0.072
-18.284,0.066,-0.072
-18.28,0.066,-0.064
-18.276,0.066,-0.064
-18.272,0.07,-0.072
-18.268,0.066,-0.072
-18.264,0.066,-0.072
-18.26,0.066,-0.072
-18.256,0.066,-0.072
-18.252,0.066,-0.072
-18.248,0.066,-0.08000001
-18.244,0.066,-0.072
-18.24,0.066,-0.064
-18.236,0.07,-0.08000001
-18.232,0.066,-0.072
-18.228,0.07,-0.064
-18.224,0.066,-0.072
-18.22,0.066,-0.072
-18.216,0.07,-0.072
-18.212,0.07,-0.072
-18.208,0.07,-0.064
-18.204,0.07,-0.064
-18.2,0.07,-0.064
-18.196,0.07,-0.072
-18.192,0.066,-0.072
-18.188,0.066,-0.064
-18.184,0.07,-0.064
-18.18,0.066,-0.072
-18.176,0.066,-0.072
-18.172,0.066,-0.064
-18.168,0.066,-0.064
-18.164,0.07,-0.056
-18.16,0.066,-0.064
-18.156,0.066,-0.064
-18.152,0.066,-0.064
-18.148,0.062,-0.064
-18.144,0.066,-0.064
-18.14,0.066,-0.064
-18.136,0.07,-0.064
-18.132,0.066,-0.064
-18.128,0.066,-0.064
-18.124,0.066,-0.064
-18.12,0.066,-0.064
-18.116,0.066,-0.056
-18.112,0.07,-0.064
-18.108,0.066,-0.064
-18.104,0.066,-0.064
-18.1,0.066,-0.056
-18.096,0.062,-0.056
-18.092,0.066,-0.064
-18.088,0.066,-0.064
-18.084,0.066,-0.064
-18.08,0.066,-0.056
-18.076,0.066,-0.064
-18.072,0.066,-0.064
-18.068,0.058,-0.056
-18.064,0.066,-0.056
-18.06,0.062,-0.056
-18.056,0.066,-0.056
-18.052,0.062,-0.064
-18.048,0.062,-0.064
-18.044,0.062,-0.056
-18.04,0.062,-0.056
-18.036,0.062,-0.064
-18.032,0.062,-0.056
-18.028,0.062,-0.056
-18.024,0.062,-0.056
-18.02,0.066,-0.056
-18.016,0.066,-0.056
-18.012,0.066,-0.056
-18.008,0.062,-0.056
-18.004,0.062,-0.048
-18,0.062,-0.056
-17.996,0.062,-0.064
-17.992,0.062,-0.064
-17.988,0.062,-0.056
-17.984,0.062,-0.056
-17.98,0.062,-0.056
-17.976,0.062,-0.048
-17.972,0.062,-0.048
-17.968,0.062,-0.056
-17.964,0.062,-0.064
-17.96,0.062,-0.056
-17.956,0.058,-0.056
-17.952,0.062,-0.056
-17.948,0.062,-0.064
-17.944,0.062,-0.064
-17.94,0.058,-0.056
-17.936,0.062,-0.056
-17.932,0.062,-0.064
-17.928,0.058,-0.056
-17.924,0.058,-0.064
-17.92,0.058,-0.056
-17.916,0.058,-0.056
-17.912,0.058,-0.064
-17.908,0.058,-0.056
-17.904,0.058,-0.056
-17.9,0.058,-0.056
-17.896,0.058,-0.056
-17.892,0.054,-0.056
-17.888,0.054,-0.056
-17.884,0.054,-0.064
-17.88,0.058,-0.056
-17.876,0.054,-0.056
-17.872,0.058,-0.056
-17.868,0.054,-0.056
-17.864,0.058,-0.064
-17.86,0.054,-0.056
-17.856,0.054,-0.064
-17.852,0.058,-0.064
-17.848,0.054,-0.056
-17.844,0.054,-0.056
-17.84,0.054,-0.064
-17.836,0.054,-0.064
-17.832,0.054,-0.056
-17.828,0.054,-0.064
-17.824,0.054,-0.064
-17.82,0.054,-0.064
-17.816,0.054,-0.072
-17.812,0.058,-0.056
-17.808,0.054,-0.056
-17.804,0.054,-0.064
-17.8,0.054,-0.064
-17.796,0.054,-0.064
-17.792,0.05,-0.072
-17.788,0.05,-0.056
-17.784,0.058,-0.072
-17.78,0.054,-0.064
-17.776,0.054,-0.072
-17.772,0.05,-0.064
-17.768,0.05,-0.064
-17.764,0.058,-0.064
-17.76,0.054,-0.064
-17.756,0.054,-0.064
-17.752,0.054,-0.072
-17.748,0.054,-0.064
-17.744,0.054,-0.064
-17.74,0.054,-0.064
-17.736,0.054,-0.056
-17.732,0.054,-0.064
-17.728,0.054,-0.064
-17.724,0.058,-0.064
-17.72,0.054,-0.072
-17.716,0.054,-0.064
-17.712,0.05,-0.064
-17.708,0.054,-0.064
-17.704,0.054,-0.072
-17.7,0.05,-0.064
-17.696,0.054,-0.064
-17.692,0.054,-0.064
-17.688,0.05,-0.064
-17.684,0.054,-0.064
-17.68,0.05,-0.064
-17.676,0.054,-0.072
-17.672,0.054,-0.064
-17.668,0.054,-0.072
-17.664,0.054,-0.072
-17.66,0.058,-0.072
-17.656,0.054,-0.064
-17.652,0.054,-0.072
-17.648,0.054,-0.072
-17.644,0.054,-0.072
-17.64,0.054,-0.064
-17.636,0.054,-0.072
-17.632,0.05,-0.064
-17.628,0.05,-0.072
-17.624,0.054,-0.072
-17.62,0.05,-0.072
-17.616,0.054,-0.072
-17.612,0.05,-0.072
-17.608,0.05,-0.072
-17.604,0.054,-0.064
-17.6,0.05,-0.072
-17.596,0.054,-0.064
-17.592,0.05,-0.064
-17.588,0.046,-0.072
-17.584,0.05,-0.072
-17.58,0.05,-0.064
-17.576,0.05,-0.056
-17.572,0.05,-0.072
-17.568,0.05,-0.064
-17.564,0.05,-0.064
-17.56,0.05,-0.064
-17.556,0.054,-0.056
-17.552,0.05,-0.064
-17.548,0.05,-0.056
-17.544,0.046,-0.064
-17.54,0.05,-0.056
-17.536,0.05,-0.064
-17.532,0.05,-0.056
-17.528,0.05,-0.056
-17.524,0.05,-0.064
-17.52,0.05,-0.056
-17.516,0.05,-0.048
-17.512,0.05,-0.056
-17.508,0.046,-0.056
-17.504,0.05,-0.056
-17.5,0.046,-0.048
-17.496,0.05,-0.048
-17.492,0.05,-0.048
-17.488,0.05,-0.048
-17.484,0.05,-0.056
-17.48,0.046,-0.056
-17.476,0.042,-0.048
-17.472,0.046,-0.056
-17.468,0.046,-0.04
-17.464,0.046,-0.056
-17.46,0.046,-0.048
-17.456,0.046,-0.048
-17.452,0.046,-0.048
-17.448,0.046,-0.048
-17.444,0.05,-0.048
-17.44,0.046,-0.048
-17.436,0.046,-0.056
-17.432,0.042,-0.048
-17.428,0.05,-0.048
-17.424,0.046,-0.048
-17.42,0.046,-0.048
-17.416,0.042,-0.048
-17.412,0.042,-0.056
-17.408,0.042,-0.048
-17.404,0.042,-0.056
-17.4,0.038,-0.064
-17.396,0.042,-0.048
-17.392,0.042,-0.056
-17.388,0.038,-0.056
-17.384,0.042,-0.056
-17.38,0.042,-0.056
-17.376,0.042,-0.056
-17.372,0.042,-0.056
-17.368,0.042,-0.056
-17.364,0.042,-0.056
-17.36,0.042,-0.056
-17.356,0.038,-0.048
-17.352,0.038,-0.056
-17.348,0.038,-0.056
-17.344,0.038,-0.048
-17.34,0.042,-0.048
-17.336,0.038,-0.056
-17.332,0.038,-0.056
-17.328,0.038,-0.048
-17.324,0.038,-0.056
-17.32,0.038,-0.056
-17.316,0.038,-0.048
-17.312,0.042,-0.056
-17.308,0.038,-0.056
-17.304,0.038,-0.048
-17.3,0.042,-0.064
-17.296,0.042,-0.056
-17.292,0.038,-0.056
-17.288,0.042,-0.056
-17.284,0.038,-0.048
-17.28,0.038,-0.048
-17.276,0.038,-0.056
-17.272,0.038,-0.056
-17.268,0.038,-0.056
-17.264,0.038,-0.048
-17.26,0.038,-0.056
-17.256,0.042,-0.056
-17.252,0.042,-0.04
-17.248,0.038,-0.048
-17.244,0.038,-0.048
-17.24,0.038,-0.056
-17.236,0.038,-0.056
-17.232,0.042,-0.048
-17.228,0.042,-0.056
-17.224,0.038,-0.048
-17.22,0.042,-0.048
-17.216,0.042,-0.048
-17.212,0.038,-0.048
-17.208,0.038,-0.048
-17.204,0.038,-0.048
-17.2,0.042,-0.048
-17.196,0.038,-0.056
-17.192,0.038,-0.048
-17.188,0.042,-0.056
-17.184,0.034,-0.056
-17.18,0.034,-0.048
-17.176,0.038,-0.048
-17.172,0.034,-0.056
-17.168,0.038,-0.048
-17.164,0.038,-0.048
-17.16,0.038,-0.048
-17.156,0.034,-0.048
-17.152,0.038,-0.056
-17.148,0.038,-0.048
-17.144,0.038,-0.048
-17.14,0.038,-0.048
-17.136,0.038,-0.048
-17.132,0.038,-0.048
-17.128,0.034,-0.04
-17.124,0.038,-0.048
-17.12,0.038,-0.048
-17.116,0.038,-0.048
-17.112,0.038,-0.048
-17.108,0.038,-0.04
-17.104,0.038,-0.048
-17.1,0.034,-0.048
-17.096,0.034,-0.048
-17.092,0.03,-0.04
-17.088,0.034,-0.048
-17.084,0.034,-0.056
-17.08,0.03,-0.048
-17.076,0.034,-0.056
-17.072,0.034,-0.048
-17.068,0.038,-0.048
-17.064,0.034,-0.056
-17.06,0.038,-0.048
-17.056,0.034,-0.048
-17.052,0.034,-0.048
-17.048,0.034,-0.056
-17.044,0.034,-0.056
-17.04,0.034,-0.056
-17.036,0.038,-0.056
-17.032,0.03,-0.056
-17.028,0.03,-0.056
-17.024,0.034,-0.056
-17.02,0.034,-0.048
-17.016,0.034,-0.056
-17.012,0.034,-0.064
-17.008,0.034,-0.056
-17.004,0.034,-0.064
-17,0.03,-0.056
-16.996,0.038,-0.056
-16.992,0.034,-0.048
-16.988,0.034,-0.056
-16.984,0.034,-0.048
-16.98,0.038,-0.056
-16.976,0.034,-0.056
-16.972,0.038,-0.048
-16.968,0.034,-0.048
-16.964,0.038,-0.048
-16.96,0.042,-0.048
-16.956,0.034,-0.048
-16.952,0.038,-0.056
-16.948,0.038,-0.048
-16.944,0.034,-0.04
-16.94,0.038,-0.04
-16.936,0.038,-0.032
-16.932,0.038,-0.04
-16.928,0.034,-0.032
-16.924,0.042,-0.032
-16.92,0.038,-0.008
-16.916,0.038,-0.016
-16.912,0.034,-0.016
-16.908,0.042,0
-16.904,0.042,-0.008
-16.9,0.038,0.016
-16.896,0.038,0.008
-16.892,0.038,0.008
-16.888,0.042,0.008
-16.884,0.038,0.008
-16.88,0.034,0.016
-16.876,0.038,0
-16.872,0.038,0.008
-16.868,0.038,0
-16.864,0.038,-0.008
-16.86,0.038,-0.008
-16.856,0.042,-0.008
-16.852,0.042,-0.008
-16.848,0.038,-0.016
-16.844,0.038,-0.024
-16.84,0.038,-0.024
-16.836,0.038,-0.024
-16.832,0.042,-0.024
-16.828,0.038,-0.024
-16.824,0.038,-0.016
-16.82,0.042,-0.024
-16.816,0.038,-0.032
-16.812,0.038,-0.016
-16.808,0.042,-0.016
-16.804,0.034,-0.016
-16.8,0.038,-0.016
-16.796,0.038,-0.008
-16.792,0.034,0
-16.788,0.038,-0.008
-16.784,0.034,0
-16.78,0.034,0
-16.776,0.038,0
-16.772,0.038,0
-16.768,0.038,0
-16.764,0.038,-0.008
-16.76,0.038,0
-16.756,0.038,0
-16.752,0.038,-0.008
-16.748,0.038,-0.008
-16.744,0.034,-0.016
-16.74,0.038,-0.016
-16.736,0.038,-0.008
-16.732,0.038,-0.024
-16.728,0.034,-0.008
-16.724,0.034,-0.016
-16.72,0.038,-0.016
-16.716,0.034,-0.016
-16.712,0.042,-0.024
-16.708,0.038,-0.024
-16.704,0.038,-0.024
-16.7,0.042,-0.016
-16.696,0.038,-0.016
-16.692,0.038,-0.016
-16.688,0.038,-0.016
-16.684,0.038,-0.016
-16.68,0.034,0
-16.676,0.034,-0.016
-16.672,0.038,-0.008
-16.668,0.034,0.008
-16.664,0.038,-0.016
-16.66,0.038,0
-16.656,0.038,-0.008
-16.652,0.038,-0.008
-16.648,0.038,-0.008
-16.644,0.038,-0.008
-16.64,0.038,0
-16.636,0.038,-0.008
-16.632,0.038,0
-16.628,0.038,-0.008
-16.624,0.038,-0.016
-16.62,0.038,-0.008
-16.616,0.034,-0.016
-16.612,0.034,-0.008
-16.608,0.034,-0.016
-16.604,0.038,-0.008
-16.6,0.038,-0.008
-16.596,0.038,-0.016
-16.592,0.038,-0.008
-16.588,0.034,-0.016
-16.584,0.038,-0.008
-16.58,0.038,-0.008
-16.576,0.034,-0.008
-16.572,0.038,-0.008
-16.568,0.038,-0.016
-16.564,0.034,-0.008
-16.56,0.038,-0.008
-16.556,0.034,-0.008
-16.552,0.038,-0.016
-16.548,0.038,-0.008
-16.544,0.034,-0.008
-16.54,0.034,-0.016
-16.536,0.038,-0.008
-16.532,0.038,-0.008
-16.528,0.034,0
-16.524,0.038,-0.008
-16.52,0.038,-0.008
-16.516,0.038,0
-16.512,0.038,-0.008
-16.508,0.038,-0.008
-16.504,0.038,-0.008
-16.5,0.034,-0.016
-16.496,0.034,-0.008
-16.492,0.038,-0.016
-16.488,0.034,-0.008
-16.484,0.038,-0.008
-16.48,0.038,-0.008
-16.476,0.038,-0.008
-16.472,0.034,0
-16.468,0.038,-0.008
-16.464,0.038,-0.008
-16.46,0.034,-0.008
-16.456,0.034,-0.008
-16.452,0.034,-0.016
-16.448,0.038,-0.008
-16.444,0.034,-0.008
-16.44,0.034,0
-16.436,0.038,0
-16.432,0.038,-0.008
-16.428,0.034,0
-16.424,0.038,0
-16.42,0.038,-0.008
-16.416,0.034,-0.008
-16.412,0.034,-0.008
-16.408,0.038,-0.008
-16.404,0.038,-0.008
-16.4,0.034,-0.008
-16.396,0.034,-0.008
-16.392,0.034,-0.008
-16.388,0.034,-0.008
-16.384,0.038,0
-16.38,0.03,-0.016
-16.376,0.034,0
-16.372,0.034,-0.008
-16.368,0.034,-0.016
-16.364,0.034,-0.008
-16.36,0.034,-0.008
-16.356,0.034,-0.008
-16.352,0.034,-0.008
-16.348,0.038,-0.008
-16.344,0.034,-0.008
-16.34,0.034,-0.008
-16.336,0.034,-0.008
-16.332,0.038,-0.008
-16.328,0.038,-0.008
-16.324,0.034,-0.008
-16.32,0.038,-0.008
-16.316,0.038,0
-16.312,0.034,-0.016
-16.308,0.038,0
-16.304,0.038,-0.008
-16.3,0.034,-0.008
-16.296,0.038,-0.016
-16.292,0.038,-0.008
-16.288,0.038,-0.016
-16.284,0.034,-0.008
-16.28,0.034,-0.008
-16.276,0.038,-0.008
-16.272,0.038,-0.008
-16.268,0.034,-0.008
-16.264,0.034,-0.008
-16.26,0.034,-0.008
-16.256,0.034,-0.008
-16.252,0.034,-0.008
-16.248,0.034,-0.008
-16.244,0.038,-0.008
-16.24,0.034,-0.008
-16.236,0.034,-0.008
-16.232,0.034,0
-16.228,0.038,-0.008
-16.224,0.034,-0.008
-16.22,0.034,0
-16.216,0.038,-0.008
-16.212,0.034,0
-16.208,0.034,0
-16.204,0.034,-0.008
-16.2,0.034,-0.008
-16.196,0.034,-0.008
-16.192,0.034,-0.008
-16.188,0.034,-0.008
-16.184,0.038,-0.008
-16.18,0.03,-0.008
-16.176,0.034,-0.008
-16.172,0.034,-0.008
-16.168,0.034,-0.008
-16.164,0.034,-0.008
-16.16,0.038,-0.016
-16.156,0.034,-0.016
-16.152,0.034,-0.008
-16.148,0.034,-0.016
-16.144,0.034,-0.008
-16.14,0.034,-0.008
-16.136,0.034,0
-16.132,0.038,-0.016
-16.128,0.034,-0.008
-16.124,0.034,-0.008
-16.12,0.03,-0.008
-16.116,0.034,-0.008
-16.112,0.034,-0.008
-16.108,0.034,-0.008
-16.104,0.034,0
-16.1,0.034,-0.008
-16.096,0.034,-0.008
-16.092,0.034,-0.016
-16.088,0.034,-0.008
-16.084,0.03,-0.008
-16.08,0.034,-0.016
-16.076,0.03,0
-16.072,0.03,-0.008
-16.068,0.03,-0.008
-16.064,0.034,-0.008
-16.06,0.034,0
-16.056,0.038,-0.008
-16.052,0.03,-0.008
-16.048,0.034,0
-16.044,0.034,-0.008
-16.04,0.034,-0.008
-16.036,0.034,-0.008
-16.032,0.034,-0.008
-16.028,0.03,-0.008
-16.024,0.03,-0.008
-16.02,0.038,0
-16.016,0.034,0
-16.012,0.034,-0.008
-16.008,0.034,-0.008
-16.004,0.034,-0.008
-16,0.034,0
-15.996,0.034,-0.008
-15.992,0.03,0
-15.988,0.034,-0.008
-15.984,0.034,0
-15.98,0.034,0
-15.976,0.034,-0.008
-15.972,0.034,-0.008
-15.968,0.034,-0.008
-15.964,0.03,0
-15.96,0.03,-0.008
-15.956,0.03,-0.008
-15.952,0.034,-0.008
-15.948,0.038,0
-15.944,0.034,-0.008
-15.94,0.03,-0.008
-15.936,0.03,-0.008
-15.932,0.03,-0.008
-15.928,0.034,-0.008
-15.924,0.034,0
-15.92,0.03,-0.008
-15.916,0.03,-0.008
-15.912,0.03,0
-15.908,0.03,0
-15.904,0.03,-0.008
-15.9,0.03,0
-15.896,0.034,0
-15.892,0.03,0
-15.888,0.034,0
-15.884,0.034,0
-15.88,0.03,0
-15.876,0.03,0
-15.872,0.03,0
-15.868,0.03,0
-15.864,0.03,0
-15.86,0.03,0
-15.856,0.03,0
-15.852,0.03,0
-15.848,0.03,-0.008
-15.844,0.03,-0.008
-15.84,0.034,-0.008
-15.836,0.03,0
-15.832,0.03,-0.008
-15.828,0.03,-0.008
-15.824,0.03,-0.008
-15.82,0.03,0
-15.816,0.03,-0.008
-15.812,0.03,-0.008
-15.808,0.03,0
-15.804,0.03,-0.008
-15.8,0.03,0
-15.796,0.03,-0.008
-15.792,0.03,0
-15.788,0.034,0
-15.784,0.03,-0.016
-15.78,0.026,-0.008
-15.776,0.03,-0.008
-15.772,0.03,-0.008
-15.768,0.03,-0.008
-15.764,0.03,0
-15.76,0.03,0
-15.756,0.03,-0.008
-15.752,0.03,-0.008
-15.748,0.03,-0.008
-15.744,0.026,-0.008
-15.74,0.034,-0.008
-15.736,0.03,-0.008
-15.732,0.03,-0.008
-15.728,0.026,-0.008
-15.724,0.03,-0.008
-15.72,0.026,-0.008
-15.716,0.03,-0.008
-15.712,0.03,-0.008
-15.708,0.026,-0.008
-15.704,0.03,0
-15.7,0.026,0
-15.696,0.03,0
-15.692,0.026,0
-15.688,0.026,0
-15.684,0.026,0
-15.68,0.03,0
-15.676,0.022,0.008
-15.672,0.026,0
-15.668,0.026,0
-15.664,0.026,-0.008
-15.66,0.022,0
-15.656,0.026,0
-15.652,0.022,-0.008
-15.648,0.026,-0.008
-15.644,0.026,0
-15.64,0.022,-0.008
-15.636,0.026,-0.008
-15.632,0.022,-0.008
-15.628,0.022,0
-15.624,0.022,0
-15.62,0.022,-0.008
-15.616,0.018,0
-15.612,0.022,-0.008
-15.608,0.022,-0.008
-15.604,0.022,-0.008
-15.6,0.022,-0.008
-15.596,0.026,-0.008
-15.592,0.018,-0.008
-15.588,0.018,-0.008
-15.584,0.022,-0.008
-15.58,0.018,-0.008
-15.576,0.022,-0.008
-15.572,0.022,-0.008
-15.568,0.018,0
-15.564,0.018,-0.008
-15.56,0.018,0.008
-15.556,0.022,-0.008
-15.552,0.022,0
-15.548,0.022,-0.008
-15.544,0.018,0.008
-15.54,0.014,0
-15.536,0.018,-0.008
-15.532,0.018,-0.008
-15.528,0.022,-0.016
-15.524,0.018,-0.008
-15.52,0.018,-0.008
-15.516,0.018,-0.016
-15.512,0.022,-0.008
-15.508,0.018,-0.008
-15.504,0.018,-0.008
-15.5,0.018,-0.008
-15.496,0.018,0
-15.492,0.018,0
-15.488,0.022,0
-15.484,0.022,0
-15.48,0.018,-0.008
-15.476,0.022,0
-15.472,0.022,0
-15.468,0.022,-0.008
-15.464,0.022,-0.008
-15.46,0.022,0
-15.456,0.018,0
-15.452,0.022,-0.008
-15.448,0.022,0
-15.444,0.022,-0.008
-15.44,0.022,-0.008
-15.436,0.022,-0.008
-15.432,0.022,-0.008
-15.428,0.022,-0.008
-15.424,0.022,0
-15.42,0.026,-0.008
-15.416,0.022,-0.008
-15.412,0.022,-0.008
-15.408,0.022,-0.008
-15.404,0.022,-0.008
-15.4,0.022,0
-15.396,0.018,-0.008
-15.392,0.026,0
-15.388,0.026,0
-15.384,0.018,0
-15.38,0.022,0
-15.376,0.022,-0.008
-15.372,0.022,-0.008
-15.368,0.022,-0.008
-15.364,0.026,0
-15.36,0.022,-0.008
-15.356,0.022,0
-15.352,0.026,-0.008
-15.348,0.022,0.008
-15.344,0.026,-0.008
-15.34,0.022,0
-15.336,0.022,0
-15.332,0.022,0
-15.328,0.022,0
-15.324,0.026,-0.008
-15.32,0.022,0
-15.316,0.022,-0.008
-15.312,0.022,0
-15.308,0.026,-0.008
-15.304,0.026,-0.008
-15.3,0.022,0
-15.296,0.026,-0.008
-15.292,0.022,0
-15.288,0.026,0
-15.284,0.026,0.008
-15.28,0.022,0
-15.276,0.026,0
-15.272,0.026,-0.008
-15.268,0.026,0
-15.264,0.026,0.008
-15.26,0.022,0.008
-15.256,0.026,0
-15.252,0.022,0
-15.248,0.026,0
-15.244,0.026,0
-15.24,0.022,0
-15.236,0.026,0
-15.232,0.03,0
-15.228,0.022,0.008
-15.224,0.026,0
-15.22,0.026,0
-15.216,0.026,0
-15.212,0.026,0
-15.208,0.03,0
-15.204,0.03,0
-15.2,0.026,0
-15.196,0.03,0.008
-15.192,0.03,0.008
-15.188,0.026,0
-15.184,0.026,0
-15.18,0.026,0
-15.176,0.026,0.008
-15.172,0.03,0
-15.168,0.03,0
-15.164,0.03,0
-15.16,0.03,0.008
-15.156,0.026,0.008
-15.152,0.026,0
-15.148,0.026,0
-15.144,0.03,0
-15.14,0.026,0
-15.136,0.03,0
-15.132,0.03,0
-15.128,0.03,0
-15.124,0.026,0
-15.12,0.026,0
-15.116,0.026,0
-15.112,0.026,0
-15.108,0.026,-0.008
-15.104,0.026,0
-15.1,0.026,0
-15.096,0.026,0
-15.092,0.022,0
-15.088,0.026,0
-15.084,0.026,0
-15.08,0.026,0
-15.076,0.026,0
-15.072,0.026,0
-15.068,0.022,0
-15.064,0.026,0
-15.06,0.026,0
-15.056,0.026,-0.008
-15.052,0.03,0
-15.048,0.03,-0.008
-15.044,0.026,0
-15.04,0.026,0
-15.036,0.022,0
-15.032,0.026,0
-15.028,0.03,0
-15.024,0.026,0
-15.02,0.026,-0.008
-15.016,0.03,0
-15.012,0.026,0
-15.008,0.03,0
-15.004,0.026,0.008
-15,0.026,0
-14.996,0.03,0.008
-14.992,0.026,0
-14.988,0.03,0
-14.984,0.03,0
-14.98,0.026,0
-14.976,0.03,0
-14.972,0.026,0
-14.968,0.03,0
-14.964,0.03,0
-14.96,0.03,0
-14.956,0.026,0
-14.952,0.026,0
-14.948,0.026,0
-14.944,0.03,0
-14.94,0.026,0
-14.936,0.03,0
-14.932,0.026,0
-14.928,0.026,0
-14.924,0.026,-0.008
-14.92,0.026,0
-14.916,0.026,-0.008
-14.912,0.026,0
-14.908,0.03,-0.008
-14.904,0.03,-0.008
-14.9,0.026,0
-14.896,0.03,-0.008
-14.892,0.026,0
-14.888,0.026,-0.008
-14.884,0.026,-0.008
-14.88,0.026,-0.008
-14.876,0.022,-0.008
-14.872,0.03,0
-14.868,0.022,0
-14.864,0.026,0
-14.86,0.026,-0.008
-14.856,0.026,-0.008
-14.852,0.026,-0.008
-14.848,0.026,0
-14.844,0.026,0
-14.84,0.022,0
-14.836,0.026,-0.008
-14.832,0.026,0
-14.828,0.022,0
-14.824,0.026,0
-14.82,0.026,0
-14.816,0.026,0
-14.812,0.026,-0.008
-14.808,0.022,0
-14.804,0.022,0
-14.8,0.022,0
-14.796,0.026,0.008
-14.792,0.026,0
-14.788,0.026,-0.008
-14.784,0.026,0
-14.78,0.022,0
-14.776,0.026,0
-14.772,0.026,-0.008
-14.768,0.022,-0.008
-14.764,0.026,-0.008
-14.76,0.026,0
-14.756,0.026,0
-14.752,0.03,0
-14.748,0.026,0
-14.744,0.026,-0.008
-14.74,0.026,0
-14.736,0.022,0
-14.732,0.022,0
-14.728,0.03,0
-14.724,0.026,-0.008
-14.72,0.026,0
-14.716,0.026,0
-14.712,0.022,-0.008
-14.708,0.026,0
-14.704,0.026,-0.008
-14.7,0.026,0.008
-14.696,0.026,0
-14.692,0.026,0
-14.688,0.026,-0.008
-14.684,0.026,0
-14.68,0.026,-0.016
-14.676,0.026,-0.008
-14.672,0.026,0
-14.668,0.026,-0.008
-14.664,0.026,0
-14.66,0.026,0
-14.656,0.022,-0.008
-14.652,0.022,0
-14.648,0.026,-0.008
-14.644,0.026,0
-14.64,0.026,0
-14.636,0.022,0
-14.632,0.026,0
-14.628,0.022,0
-14.624,0.026,-0.008
-14.62,0.022,0
-14.616,0.022,0
-14.612,0.022,0
-14.608,0.022,-0.008
-14.604,0.022,0
-14.6,0.026,0.008
-14.596,0.022,0
-14.592,0.026,0.008
-14.588,0.022,0
-14.584,0.022,0.008
-14.58,0.022,0
-14.576,0.022,0.008
-14.572,0.022,0.008
-14.568,0.022,0.008
-14.564,0.022,0
-14.56,0.018,0.008
-14.556,0.022,0.008
-14.552,0.022,0.008
-14.548,0.022,0
-14.544,0.022,0.008
-14.54,0.022,0
-14.536,0.022,0.008
-14.532,0.022,0
-14.528,0.022,0
-14.524,0.022,0
-14.52,0.022,0
-14.516,0.022,0
-14.512,0.018,0
-14.508,0.022,0
-14.504,0.018,0
-14.5,0.022,0.008
-14.496,0.022,0.008
-14.492,0.018,0.008
-14.488,0.022,0.008
-14.484,0.022,0
-14.48,0.018,0.008
-14.476,0.022,0.008
-14.472,0.022,0
-14.468,0.018,0
-14.464,0.026,0.008
-14.46,0.022,0
-14.456,0.022,0.008
-14.452,0.018,0.008
-14.448,0.018,0
-14.444,0.022,0
-14.44,0.018,0.008
-14.436,0.018,0.008
-14.432,0.022,0
-14.428,0.018,0
-14.424,0.018,0
-14.42,0.018,0.008
-14.416,0.018,0.008
-14.412,0.018,0.008
-14.408,0.018,0.008
-14.404,0.014,0
-14.4,0.018,0.016
-14.396,0.014,0
-14.392,0.014,0
-14.388,0.018,0.008
-14.384,0.018,0
-14.38,0.014,0
-14.376,0.014,0
-14.372,0.014,0.008
-14.368,0.018,0.008
-14.364,0.014,0
-14.36,0.014,0
-14.356,0.014,0.008
-14.352,0.014,0
-14.348,0.014,0.008
-14.344,0.014,0.008
-14.34,0.014,0.008
-14.336,0.018,0
-14.332,0.018,0.008
-14.328,0.014,0.008
-14.324,0.018,0.008
-14.32,0.014,0
-14.316,0.014,0.008
-14.312,0.014,0.008
-14.308,0.014,0.008
-14.304,0.018,0.008
-14.3,0.018,0
-14.296,0.018,0.008
-14.292,0.014,0
-14.288,0.014,0.008
-14.284,0.018,0.008
-14.28,0.018,0
-14.276,0.018,0.008
-14.272,0.014,0.008
-14.268,0.018,0.008
-14.264,0.022,0
-14.26,0.018,0.008
-14.256,0.018,0.008
-14.252,0.022,0.008
-14.248,0.018,0.008
-14.244,0.018,0
-14.24,0.018,0.008
-14.236,0.018,0
-14.232,0.018,0
-14.228,0.018,0.008
-14.224,0.018,0.008
-14.22,0.022,0
-14.216,0.022,0.008
-14.212,0.022,0.008
-14.208,0.018,0.008
-14.204,0.022,0.008
-14.2,0.014,0
-14.196,0.018,0.008
-14.192,0.018,0
-14.188,0.018,0.008
-14.184,0.018,0.008
-14.18,0.018,0
-14.176,0.018,0
-14.172,0.018,0
-14.168,0.022,0
-14.164,0.018,0.008
-14.16,0.018,0.008
-14.156,0.014,0.008
-14.152,0.018,0
-14.148,0.018,0
-14.144,0.018,0
-14.14,0.018,0
-14.136,0.018,0
-14.132,0.018,0.008
-14.128,0.014,0
-14.124,0.014,0
-14.12,0.018,0.008
-14.116,0.018,0
-14.112,0.014,0.008
-14.108,0.018,0
-14.104,0.018,0.008
-14.1,0.018,0.008
-14.096,0.018,0
-14.092,0.018,0
-14.088,0.014,0.008
-14.084,0.018,0
-14.08,0.014,0
-14.076,0.014,0
-14.072,0.014,0.008
-14.068,0.018,0.008
-14.064,0.018,0
-14.06,0.014,0
-14.056,0.018,0.008
-14.052,0.014,0.008
-14.048,0.014,0.008
-14.044,0.014,0.008
-14.04,0.018,0.008
-14.036,0.018,0
-14.032,0.014,0.008
-14.028,0.018,0.008
-14.024,0.018,0
-14.02,0.014,0.008
-14.016,0.018,0.008
-14.012,0.014,0.008
-14.008,0.014,0
-14.004,0.018,0.008
-14,0.018,0.008
-13.996,0.018,0.016
-13.992,0.014,0.008
-13.988,0.018,0.008
-13.984,0.018,0.008
-13.98,0.018,0.008
-13.976,0.018,0
-13.972,0.018,0
-13.968,0.018,0.008
-13.964,0.022,0.008
-13.96,0.018,0.008
-13.956,0.022,0
-13.952,0.018,0.008
-13.948,0.018,0.008
-13.944,0.022,0.008
-13.94,0.022,0.008
-13.936,0.018,0
-13.932,0.018,0.008
-13.928,0.018,0.008
-13.924,0.018,0.008
-13.92,0.018,0.008
-13.916,0.018,0.008
-13.912,0.018,0.016
-13.908,0.014,0.016
-13.904,0.018,0.008
-13.9,0.018,0
-13.896,0.014,0
-13.892,0.014,0
-13.888,0.018,0.008
-13.884,0.014,0.008
-13.88,0.014,0.008
-13.876,0.014,0
-13.872,0.014,0.008
-13.868,0.014,0.008
-13.864,0.018,0.008
-13.86,0.014,0.008
-13.856,0.014,0.008
-13.852,0.014,0
-13.848,0.01,0
-13.844,0.014,0.008
-13.84,0.014,0.008
-13.836,0.014,0.008
-13.832,0.014,0
-13.828,0.014,0.016
-13.824,0.014,0
-13.82,0.014,0.008
-13.816,0.014,0.008
-13.812,0.014,0
-13.808,0.018,0.008
-13.804,0.018,0.008
-13.8,0.014,0.008
-13.796,0.018,0.008
-13.792,0.018,0.008
-13.788,0.018,0.008
-13.784,0.014,0.008
-13.78,0.014,0
-13.776,0.014,0.008
-13.772,0.014,0.008
-13.768,0.018,0.008
-13.764,0.018,0
-13.76,0.018,0.008
-13.756,0.018,0.008
-13.752,0.014,0.016
-13.748,0.018,0.008
-13.744,0.022,0.008
-13.74,0.018,0.016
-13.736,0.018,0.008
-13.732,0.018,0.008
-13.728,0.014,0.008
-13.724,0.018,0.008
-13.72,0.014,0
-13.716,0.014,0.008
-13.712,0.018,0.008
-13.708,0.014,0.008
-13.704,0.018,0.008
-13.7,0.018,0.008
-13.696,0.018,0.008
-13.692,0.018,0.008
-13.688,0.018,0.008
-13.684,0.014,0.008
-13.68,0.018,0.008
-13.676,0.018,0.016
-13.672,0.018,0.008
-13.668,0.014,0.008
-13.664,0.018,0.008
-13.66,0.014,0.008
-13.656,0.014,0.008
-13.652,0.018,0.016
-13.648,0.014,0.008
-13.644,0.014,0.008
-13.64,0.014,0.008
-13.636,0.014,0.016
-13.632,0.014,0
-13.628,0.014,0.008
-13.624,0.014,0.008
-13.62,0.014,0.008
-13.616,0.018,0.016
-13.612,0.018,0.008
-13.608,0.018,0.008
-13.604,0.014,0.008
-13.6,0.014,0.016
-13.596,0.014,0
-13.592,0.014,0.008
-13.588,0.014,0.008
-13.584,0.014,0.008
-13.58,0.018,0.008
-13.576,0.018,0.008
-13.572,0.014,0.008
-13.568,0.014,0
-13.564,0.014,0.008
-13.56,0.014,0.008
-13.556,0.014,0.016
-13.552,0.014,0.016
-13.548,0.018,0.008
-13.544,0.014,0.008
-13.54,0.014,0.008
-13.536,0.014,0.008
-13.532,0.014,0.008
-13.528,0.018,0.008
-13.524,0.014,0.008
-13.52,0.014,0.008
-13.516,0.014,0.008
-13.512,0.014,0.008
-13.508,0.014,0
-13.504,0.014,0.016
-13.5,0.014,0.008
-13.496,0.018,0.016
-13.492,0.014,0.016
-13.488,0.014,0.008
-13.484,0.014,0.008
-13.48,0.014,0.016
-13.476,0.014,0.008
-13.472,0.014,0.016
-13.468,0.014,0.008
-13.464,0.014,0.016
-13.46,0.014,0.016
-13.456,0.014,0.016
-13.452,0.014,0.016
-13.448,0.01,0.016
-13.444,0.014,0.016
-13.44,0.01,0.016
-13.436,0.01,0.024
-13.432,0.01,0.016
-13.428,0.01,0.016
-13.424,0.01,0.016
-13.42,0.01,0.016
-13.416,0.01,0.016
-13.412,0.014,0.016
-13.408,0.006,0.016
-13.404,0.014,0.016
-13.4,0.01,0.016
-13.396,0.01,0.016
-13.392,0.01,0.016
-13.388,0.006,0.016
-13.384,0.014,0.024
-13.38,0.006,0.016
-13.376,0.006,0.008
-13.372,0.01,0.016
-13.368,0.01,0.024
-13.364,0.006,0.016
-13.36,0.006,0.008
-13.356,0.006,0.016
-13.352,0.006,0.016
-13.348,0.006,0.016
-13.344,0.01,0.016
-13.34,0.01,0.016
-13.336,0.01,0.024
-13.332,0.014,0.016
-13.328,0.01,0.016
-13.324,0.01,0.016
-13.32,0.01,0.016
-13.316,0.01,0.016
-13.312,0.01,0.016
-13.308,0.014,0.016
-13.304,0.01,0.008
-13.3,0.014,0.016
-13.296,0.01,0.016
-13.292,0.01,0.016
-13.288,0.014,0.008
-13.284,0.014,0.016
-13.28,0.014,0.016
-13.276,0.018,0.008
-13.272,0.014,0.016
-13.268,0.014,0.008
-13.264,0.01,0.008
-13.26,0.014,0.016
-13.256,0.018,0.016
-13.252,0.014,0.016
-13.248,0.018,0.008
-13.244,0.014,0
-13.24,0.018,0.016
-13.236,0.014,0.016
-13.232,0.018,0.008
-13.228,0.014,0.016
-13.224,0.014,0.008
-13.22,0.014,0.016
-13.216,0.014,0.016
-13.212,0.014,0.008
-13.208,0.014,0.008
-13.204,0.014,0.008
-13.2,0.014,0.008
-13.196,0.01,0.016
-13.192,0.014,0.016
-13.188,0.01,0.008
-13.184,0.01,0.008
-13.18,0.014,0.008
-13.176,0.01,0.016
-13.172,0.01,0.016
-13.168,0.01,0.016
-13.164,0.01,0.008
-13.16,0.014,0.008
-13.156,0.006,0.008
-13.152,0.01,0.008
-13.148,0.01,0.016
-13.144,0.01,0.016
-13.14,0.006,0.008
-13.136,0.006,0.016
-13.132,0.006,0.008
-13.128,0.01,0.008
-13.124,0.006,0.016
-13.12,0.006,0.016
-13.116,0.006,0.008
-13.112,0.006,0.016
-13.108,0.01,0.016
-13.104,0.006,0.016
-13.1,0.01,0.016
-13.096,0.006,0.016
-13.092,0.006,0.016
-13.088,0.006,0.016
-13.084,0.01,0.008
-13.08,0.006,0.008
-13.076,0.002,0.016
-13.072,0.01,0.016
-13.068,0.006,0.016
-13.064,0.006,0.016
-13.06,0.006,0.016
-13.056,0.006,0.016
-13.052,0.006,0.016
-13.048,0.01,0.016
-13.044,0.01,0.016
-13.04,0.006,0.016
-13.036,0.006,0.008
-13.032,0.006,0.008
-13.028,0.01,0.016
-13.024,0.006,0.016
-13.02,0.006,0.016
-13.016,0.006,0.016
-13.012,0.006,0.008
-13.008,0.006,0.008
-13.004,0.006,0.016
-13,0.006,0.008
-12.996,0.006,0.008
-12.992,0.006,0.016
-12.988,0.006,0.008
-12.984,0.01,0.008
-12.98,0.006,0.016
-12.976,0.01,0.016
-12.972,0.006,0.016
-12.968,0.002,0.016
-12.964,0.006,0.016
-12.96,0.006,0.016
-12.956,0.006,0.016
-12.952,0.006,0.024
-12.948,0.006,0.016
-12.944,0.006,0.016
-12.94,0.006,0.008
-12.936,0.006,0.008
-12.932,0.006,0.016
-12.928,0.01,0.008
-12.924,0.006,0.016
-12.92,0.006,0.016
-12.916,0.006,0.016
-12.912,0.002,0.016
-12.908,0.01,0.016
-12.904,0.006,0.008
-12.9,0.01,0.016
-12.896,0.006,0.016
-12.892,0.01,0.008
-12.888,0.006,0.008
-12.884,0.01,0.024
-12.88,0.006,0.016
-12.876,0.006,0.016
-12.872,0.006,0.016
-12.868,0.01,0.008
-12.864,0.006,0.008
-12.86,0.006,0.016
-12.856,0.006,0.016
-12.852,0.006,0.016
-12.848,0.006,0.024
-12.844,0.006,0.016
-12.84,0.006,0.016
-12.836,0.006,0.016
-12.832,0.006,0.016
-12.828,0.006,0.008
-12.824,0.006,0.016
-12.82,0.006,0.008
-12.816,0.002,0.016
-12.812,0.006,0.008
-12.808,0.006,0.016
-12.804,0.006,0.008
-12.8,0.006,0.008
-12.796,0.006,0.008
-12.792,0.006,0.016
-12.788,0.002,0.016
-12.784,0.006,0.016
-12.78,0.002,0.016
-12.776,0.006,0.008
-12.772,0.006,0.008
-12.768,0.002,0.008
-12.764,0.006,0.016
-12.76,0.002,0.016
-12.756,0.006,0.008
-12.752,0.006,0.016
-12.748,0.002,0.016
-12.744,0.006,0.016
-12.74,0.002,0.016
-12.736,0.006,0.008
-12.732,0.002,0.008
-12.728,0.002,0.008
-12.724,0.002,0.016
-12.72,0.002,0.008
-12.716,0.002,0.016
-12.712,0.002,0.016
-12.708,0.002,0.008
-12.704,0.002,0.016
-12.7,0.002,0.016
-12.696,0.002,0.016
-12.692,0.002,0.016
-12.688,0.002,0.008
-12.684,0.002,0.008
-12.68,0.002,0.008
-12.676,0.002,0.008
-12.672,-0.002,0.008
-12.668,0.002,0.008
-12.664,-0.002,0.016
-12.66,0.002,0.008
-12.656,0.002,0.008
-12.652,0.002,0.016
-12.648,0.002,0.008
-12.644,0.002,0.008
-12.64,0.002,0.008
-12.636,0.002,0.016
-12.632,0.002,0.008
-12.628,-0.002,0.008
-12.624,0.002,0.016
-12.62,0.002,0.016
-12.616,0.002,0.008
-12.612,0.006,0.016
-12.608,0.006,0.008
-12.604,0.006,0.008
-12.6,0.006,0.008
-12.596,0.002,0.008
-12.592,0.002,0
-12.588,0.002,0.008
-12.584,0.002,0.016
-12.58,0.002,0.016
-12.576,0.006,0.016
-12.572,0.002,0.016
-12.568,0.002,0.016
-12.564,0.006,0.016
-12.56,0.002,0.016
-12.556,0.006,0.016
-12.552,0.006,0.016
-12.548,0.002,0.016
-12.544,0.006,0.016
-12.54,0.002,0.008
-12.536,0.006,0.008
-12.532,0.002,0.016
-12.528,0.002,0.016
-12.524,0.006,0.016
-12.52,0.002,0.008
-12.516,0.006,0.016
-12.512,0.002,0.016
-12.508,0.002,0.008
-12.504,0.002,0.016
-12.5,0.002,0.016
-12.496,0.002,0.016
-12.492,0.002,0.008
-12.488,-0.002,0.016
-12.484,0.002,0.016
-12.48,0.002,0.016
-12.476,0.002,0.008
-12.472,0.002,0.016
-12.468,0.002,0.016
-12.464,0.002,0.016
-12.46,0.002,0.016
-12.456,0.002,0.016
-12.452,0.002,0.008
-12.448,0.002,0.008
-12.444,0.002,0.016
-12.44,0.002,0.008
-12.436,0.002,0.016
-12.432,0.002,0.016
-12.428,-0.002,0.016
-12.424,0.002,0.008
-12.42,0.006,0.016
-12.416,0.002,0.016
-12.412,0.002,0.016
-12.408,0.002,0.016
-12.404,0.002,0.016
-12.4,-0.002,0.016
-12.396,0.002,0.016
-12.392,0.002,0.016
-12.388,0.006,0.024
-12.384,0.002,0.016
-12.38,0.002,0.016
-12.376,0.002,0.016
-12.372,0.006,0.008
-12.368,0.002,0.016
-12.364,0.006,0.008
-12.36,0.006,0.008
-12.356,0.002,0.016
-12.352,0.002,0.016
-12.348,0.002,0.024
-12.344,0.002,0.016
-12.34,0.002,0.016
-12.336,0.002,0.016
-12.332,0.002,0.016
-12.328,0.006,0.016
-12.324,0.002,0.008
-12.32,0.002,0.016
-12.316,0.002,0.016
-12.312,0.002,0.016
-12.308,0.002,0.016
-12.304,0.002,0.016
-12.3,0.006,0.016
-12.296,0.002,0.024
-12.292,0.006,0.016
-12.288,0.002,0.024
-12.284,0.002,0.016
-12.28,-0.002,0.016
-12.276,0.002,0.024
-12.272,-0.002,0.016
-12.268,0.002,0.008
-12.264,0.002,0.016
-12.26,0.002,0.016
-12.256,0.002,0.016
-12.252,0.002,0.008
-12.248,0.002,0.016
-12.244,0.002,0.024
-12.24,-0.002,0.016
-12.236,0.002,0.016
-12.232,0.002,0.016
-12.228,-0.002,0.016
-12.224,0.002,0.016
-12.22,0.002,0.016
-12.216,0.002,0.024
-12.212,0.002,0.024
-12.208,0.002,0.024
-12.204,0.002,0.016
-12.2,-0.002,0.016
-12.196,0.002,0.016
-12.192,0.002,0.016
-12.188,0.002,0.016
-12.184,0.002,0.016
-12.18,0.002,0.016
-12.176,0.002,0.016
-12.172,-0.002,0.016
-12.168,0.002,0.016
-12.164,-0.002,0.016
-12.16,0.002,0.016
-12.156,0.002,0.016
-12.152,0.002,0.024
-12.148,0.002,0.016
-12.144,0.002,0.016
-12.14,0.002,0.016
-12.136,0.002,0.008
-12.132,0.002,0.016
-12.128,0.006,0.016
-12.124,0.002,0.016
-12.12,0.002,0.016
-12.116,0.006,0.016
-12.112,0.002,0.016
-12.108,0.002,0.008
-12.104,0.002,0.008
-12.1,0.002,0.016
-12.096,0.006,0.016
-12.092,0.006,0.016
-12.088,0.006,0.016
-12.084,0.002,0.016
-12.08,0.002,0.016
-12.076,0.006,0.016
-12.072,0.002,0.016
-12.068,0.006,0.008
-12.064,0.006,0.016
-12.06,0.002,0.016
-12.056,0.002,0.008
-12.052,0.002,0.008
-12.048,0.006,0.016
-12.044,0.002,0.016
-12.04,0.006,0.008
-12.036,0.002,0.016
-12.032,0.002,0.008
-12.028,0.002,0.016
-12.024,0.002,0.016
-12.02,0.006,0.008
-12.016,0.006,0.016
-12.012,0.006,0.008
-12.008,0.002,0.016
-12.004,0.002,0.016
-12,0.002,0.016
-11.996,0.002,0.008
-11.992,0.002,0.016
-11.988,0.002,0.008
-11.984,0.002,0.016
-11.98,0.002,0.016
-11.976,0.002,0.016
-11.972,0.002,0.016
-11.968,0.006,0.016
-11.964,0.002,0.016
-11.96,0.002,0.016
-11.956,0.002,0.016
-11.952,0.002,0.016
-11.948,-0.002,0.016
-11.944,0.006,0.016
-11.94,0.002,0.016
-11.936,0.002,0.008
-11.932,0.002,0.016
-11.928,0.002,0.008
-11.924,0.002,0.008
-11.92,0.002,0.008
-11.916,0.002,0.008
-11.912,0.002,0.008
-11.908,0.002,0.008
-11.904,-0.002,0.008
-11.9,0.002,0.016
-11.896,-0.002,0.008
-11.892,-0.002,0.008
-11.888,-0.002,0.008
-11.884,-0.002,0.008
-11.88,-0.002,0.016
-11.876,-0.002,0.008
-11.872,-0.002,0.016
-11.868,-0.002,0.016
-11.864,-0.006,0.008
-11.86,-0.002,0.008
-11.856,-0.002,0.016
-11.852,-0.002,0
-11.848,-0.002,0
-11.844,-0.006,0
-11.84,0.002,-0.008
-11.836,0.002,0
-11.832,-0.002,-0.008
-11.828,0.002,-0.008
-11.824,-0.002,0
-11.82,0.002,0
-11.816,0.006,-0.008
-11.812,-0.002,-0.008
-11.808,0.014,-0.024
-11.804,0.002,-0.008
-11.8,0.014,-0.016
-11.796,0.01,-0.016
-11.792,0.01,-0.024
-11.788,0.014,-0.016
-11.784,0.01,-0.024
-11.78,0.01,-0.024
-11.776,0.01,-0.024
-11.772,0.01,-0.032
-11.768,0.022,-0.032
-11.764,0.014,-0.032
-11.76,0.014,-0.04
-11.756,0.014,-0.04
-11.752,0.014,-0.048
-11.748,0.022,-0.048
-11.744,0.014,-0.064
-11.74,0.018,-0.064
-11.736,0.014,-0.072
-11.732,0.018,-0.072
-11.728,0.022,-0.08800001
-11.724,0.018,-0.08800001
-11.72,0.022,-0.104
-11.716,0.014,-0.104
-11.712,0.022,-0.112
-11.708,0.022,-0.12
-11.704,0.022,-0.128
-11.7,0.022,-0.136
-11.696,0.022,-0.136
-11.692,0.022,-0.152
-11.688,0.022,-0.16
-11.684,0.022,-0.16
-11.68,0.022,-0.168
-11.676,0.014,-0.168
-11.672,0.022,-0.184
-11.668,0.018,-0.184
-11.664,0.018,-0.2
-11.66,0.018,-0.2
-11.656,0.014,-0.208
-11.652,0.018,-0.216
-11.648,0.018,-0.224
-11.644,0.018,-0.224
-11.64,0.014,-0.24
-11.636,0.01,-0.248
-11.632,0.014,-0.256
-11.628,0.01,-0.256
-11.624,0.014,-0.264
-11.62,0.014,-0.272
-11.616,0.014,-0.28
-11.612,0.014,-0.288
-11.608,0.014,-0.296
-11.604,0.014,-0.296
-11.6,0.014,-0.304
-11.596,0.014,-0.312
-11.592,0.01,-0.312
-11.588,0.01,-0.328
-11.584,0.01,-0.328
-11.58,0.01,-0.336
-11.576,0.01,-0.344
-11.572,0.01,-0.36
-11.568,0.006,-0.36
-11.564,0.006,-0.376
-11.56,0.006,-0.376
-11.556,0.006,-0.384
-11.552,0.01,-0.392
-11.548,0.002,-0.4
-11.544,0.01,-0.408
-11.54,0.006,-0.416
-11.536,0.01,-0.424
-11.532,0.006,-0.424
-11.528,0.006,-0.432
-11.524,0.006,-0.432
-11.52,0.002,-0.44
-11.516,0.006,-0.456
-11.512,0.006,-0.464
-11.508,0.006,-0.464
-11.504,0.002,-0.464
-11.5,0.002,-0.472
-11.496,0.002,-0.48
-11.492,0.002,-0.48
-11.488,0.002,-0.488
-11.484,0.002,-0.496
-11.48,0.002,-0.496
-11.476,0.002,-0.504
-11.472,0.002,-0.512
-11.468,0.002,-0.504
-11.464,0.006,-0.52
-11.46,0.002,-0.52
-11.456,0.002,-0.528
-11.452,0.002,-0.528
-11.448,0.002,-0.536
-11.444,0.006,-0.536
-11.44,0.002,-0.536
-11.436,0.006,-0.544
-11.432,0.006,-0.552
-11.428,0.01,-0.544
-11.424,0.01,-0.552
-11.42,0.006,-0.552
-11.416,0.01,-0.552
-11.412,0.006,-0.56
-11.408,0.01,-0.56
-11.404,0.01,-0.56
-11.4,0.01,-0.56
-11.396,0.01,-0.56
-11.392,0.01,-0.56
-11.388,0.014,-0.56
-11.384,0.014,-0.568
-11.38,0.014,-0.568
-11.376,0.018,-0.568
-11.372,0.014,-0.56
-11.368,0.018,-0.56
-11.364,0.022,-0.568
-11.36,0.022,-0.568
-11.356,0.022,-0.568
-11.352,0.022,-0.568
-11.348,0.026,-0.568
-11.344,0.026,-0.568
-11.34,0.026,-0.568
-11.336,0.03,-0.56
-11.332,0.034,-0.56
-11.328,0.038,-0.56
-11.324,0.03,-0.56
-11.32,0.034,-0.552
-11.316,0.034,-0.552
-11.312,0.038,-0.552
-11.308,0.038,-0.544
-11.304,0.038,-0.544
-11.3,0.042,-0.544
-11.296,0.042,-0.536
-11.292,0.046,-0.536
-11.288,0.046,-0.536
-11.284,0.05,-0.536
-11.28,0.054,-0.528
-11.276,0.05,-0.528
-11.272,0.054,-0.528
-11.268,0.054,-0.512
-11.264,0.054,-0.512
-11.26,0.058,-0.512
-11.256,0.058,-0.496
-11.252,0.062,-0.496
-11.248,0.066,-0.488
-11.244,0.066,-0.488
-11.24,0.066,-0.488
-11.236,0.07,-0.48
-11.232,0.07,-0.464
-11.228,0.07,-0.456
-11.224,0.07,-0.464
-11.22,0.074,-0.456
-11.216,0.078,-0.448
-11.212,0.074,-0.44
-11.208,0.078,-0.44
-11.204,0.082,-0.432
-11.2,0.078,-0.424
-11.196,0.078,-0.424
-11.192,0.086,-0.416
-11.188,0.086,-0.416
-11.184,0.086,-0.408
-11.18,0.09,-0.392
-11.176,0.09,-0.384
-11.172,0.09,-0.384
-11.168,0.094,-0.376
-11.164,0.098,-0.368
-11.16,0.094,-0.36
-11.156,0.094,-0.352
-11.152,0.098,-0.344
-11.148,0.098,-0.344
-11.144,0.098,-0.328
-11.14,0.098,-0.328
-11.136,0.102,-0.32
-11.132,0.102,-0.304
-11.128,0.102,-0.304
-11.124,0.106,-0.296
-11.12,0.102,-0.288
-11.116,0.102,-0.28
-11.112,0.106,-0.272
-11.108,0.106,-0.272
-11.104,0.106,-0.256
-11.1,0.11,-0.256
-11.096,0.106,-0.248
-11.092,0.11,-0.232
-11.088,0.106,-0.232
-11.084,0.11,-0.224
-11.08,0.106,-0.216
-11.076,0.11,-0.208
-11.072,0.106,-0.208
-11.068,0.106,-0.192
-11.064,0.106,-0.184
-11.06,0.106,-0.184
-11.056,0.106,-0.176
-11.052,0.11,-0.168
-11.048,0.106,-0.168
-11.044,0.106,-0.152
-11.04,0.102,-0.144
-11.036,0.106,-0.144
-11.032,0.102,-0.136
-11.028,0.102,-0.128
-11.024,0.098,-0.12
-11.02,0.098,-0.112
-11.016,0.098,-0.104
-11.012,0.098,-0.104
-11.008,0.094,-0.096
-11.004,0.094,-0.08800001
-11,0.094,-0.08000001
-10.996,0.094,-0.08000001
-10.992,0.09,-0.064
-10.988,0.086,-0.064
-10.984,0.086,-0.048
-10.98,0.082,-0.04
-10.976,0.082,-0.04
-10.972,0.078,-0.032
-10.968,0.074,-0.032
-10.964,0.078,-0.032
-10.96,0.07,-0.016
-10.956,0.07,-0.016
-10.952,0.066,-0.008
-10.948,0.066,-0.008
-10.944,0.062,0
-10.94,0.062,0
-10.936,0.062,0.008
-10.932,0.054,0.008
-10.928,0.054,0.016
-10.924,0.05,0.024
-10.92,0.05,0.032
-10.916,0.046,0.032
-10.912,0.042,0.04
-10.908,0.038,0.04
-10.904,0.034,0.04
-10.9,0.03,0.04
-10.896,0.026,0.04
-10.892,0.026,0.04
-10.888,0.022,0.048
-10.884,0.018,0.056
-10.88,0.014,0.056
-10.876,0.01,0.056
-10.872,0.006,0.056
-10.868,-0.002,0.048
-10.864,0.002,0.056
-10.86,-0.006,0.056
-10.856,-0.01,0.056
-10.852,-0.022,0.056
-10.848,-0.018,0.064
-10.844,-0.018,0.072
-10.84,-0.026,0.064
-10.836,-0.03,0.064
-10.832,-0.038,0.064
-10.828,-0.038,0.056
-10.824,-0.042,0.064
-10.82,-0.046,0.056
-10.816,-0.05,0.056
-10.812,-0.054,0.064
-10.808,-0.062,0.064
-10.804,-0.062,0.064
-10.8,-0.066,0.056
-10.796,-0.07,0.056
-10.792,-0.074,0.056
-10.788,-0.082,0.056
-10.784,-0.086,0.048
-10.78,-0.086,0.048
-10.776,-0.09,0.04
-10.772,-0.098,0.04
-10.768,-0.102,0.048
-10.764,-0.106,0.04
-10.76,-0.106,0.04
-10.756,-0.114,0.032
-10.752,-0.118,0.032
-10.748,-0.122,0.032
-10.744,-0.126,0.024
-10.74,-0.13,0.024
-10.736,-0.134,0.008
-10.732,-0.138,0.008
-10.728,-0.138,0.008
-10.724,-0.142,0
-10.72,-0.146,0
-10.716,-0.15,-0.016
-10.712,-0.15,-0.016
-10.708,-0.158,-0.008
-10.704,-0.158,-0.024
-10.7,-0.162,-0.032
-10.696,-0.17,-0.032
-10.692,-0.17,-0.032
-10.688,-0.174,-0.04
-10.684,-0.174,-0.048
-10.68,-0.178,-0.056
-10.676,-0.178,-0.056
-10.672,-0.186,-0.072
-10.668,-0.182,-0.072
-10.664,-0.186,-0.072
-10.66,-0.186,-0.08000001
-10.656,-0.186,-0.08800001
-10.652,-0.19,-0.08800001
-10.648,-0.19,-0.104
-10.644,-0.19,-0.104
-10.64,-0.194,-0.112
-10.636,-0.194,-0.112
-10.632,-0.194,-0.128
-10.628,-0.198,-0.136
-10.624,-0.198,-0.144
-10.62,-0.202,-0.144
-10.616,-0.202,-0.152
-10.612,-0.202,-0.16
-10.608,-0.202,-0.16
-10.604,-0.202,-0.168
-10.6,-0.198,-0.168
-10.596,-0.198,-0.176
-10.592,-0.198,-0.192
-10.588,-0.202,-0.192
-10.584,-0.198,-0.192
-10.58,-0.202,-0.208
-10.576,-0.198,-0.208
-10.572,-0.202,-0.224
-10.568,-0.198,-0.224
-10.564,-0.194,-0.232
-10.56,-0.194,-0.24
-10.556,-0.194,-0.24
-10.552,-0.194,-0.256
-10.548,-0.19,-0.256
-10.544,-0.186,-0.256
-10.54,-0.19,-0.264
-10.536,-0.186,-0.272
-10.532,-0.186,-0.28
-10.528,-0.186,-0.28
-10.524,-0.182,-0.28
-10.52,-0.178,-0.296
-10.516,-0.174,-0.304
-10.512,-0.174,-0.304
-10.508,-0.17,-0.312
-10.504,-0.17,-0.32
-10.5,-0.162,-0.32
-10.496,-0.162,-0.32
-10.492,-0.158,-0.328
-10.488,-0.15,-0.336
-10.484,-0.146,-0.336
-10.48,-0.146,-0.344
-10.476,-0.142,-0.352
-10.472,-0.134,-0.352
-10.468,-0.13,-0.352
-10.464,-0.126,-0.36
-10.46,-0.126,-0.36
-10.456,-0.118,-0.368
-10.452,-0.114,-0.368
-10.448,-0.106,-0.368
-10.444,-0.102,-0.376
-10.44,-0.094,-0.376
-10.436,-0.094,-0.392
-10.432,-0.086,-0.384
-10.428,-0.078,-0.384
-10.424,-0.074,-0.384
-10.42,-0.07,-0.392
-10.416,-0.066,-0.4
-10.412,-0.062,-0.4
-10.408,-0.058,-0.392
-10.404,-0.05,-0.4
-10.4,-0.042,-0.4
-10.396,-0.038,-0.4
-10.392,-0.03,-0.408
-10.388,-0.026,-0.4
-10.384,-0.022,-0.408
-10.38,-0.014,-0.4
-10.376,-0.006,-0.4
-10.372,0.002,-0.408
-10.368,0.002,-0.408
-10.364,0.01,-0.4
-10.36,0.018,-0.408
-10.356,0.022,-0.416
-10.352,0.034,-0.408
-10.348,0.042,-0.408
-10.344,0.046,-0.408
-10.34,0.05,-0.408
-10.336,0.054,-0.4
-10.332,0.062,-0.4
-10.328,0.066,-0.4
-10.324,0.07,-0.408
-10.32,0.078,-0.4
-10.316,0.086,-0.4
-10.312,0.09,-0.392
-10.308,0.094,-0.4
-10.304,0.102,-0.392
-10.3,0.11,-0.392
-10.296,0.114,-0.4
-10.292,0.122,-0.392
-10.288,0.13,-0.392
-10.284,0.134,-0.392
-10.28,0.138,-0.384
-10.276,0.146,-0.376
-10.272,0.15,-0.376
-10.268,0.154,-0.376
-10.264,0.158,-0.376
-10.26,0.166,-0.376
-10.256,0.174,-0.376
-10.252,0.178,-0.368
-10.248,0.182,-0.36
-10.244,0.19,-0.36
-10.24,0.19,-0.36
-10.236,0.194,-0.352
-10.232,0.198,-0.344
-10.228,0.202,-0.344
-10.224,0.21,-0.344
-10.22,0.218,-0.344
-10.216,0.218,-0.336
-10.212,0.222,-0.336
-10.208,0.226,-0.328
-10.204,0.226,-0.32
-10.2,0.234,-0.32
-10.196,0.238,-0.32
-10.192,0.238,-0.312
-10.188,0.242,-0.312
-10.184,0.25,-0.304
-10.18,0.25,-0.304
-10.176,0.254,-0.296
-10.172,0.254,-0.288
-10.168,0.258,-0.288
-10.164,0.258,-0.288
-10.16,0.262,-0.28
-10.156,0.266,-0.272
-10.152,0.266,-0.264
-10.148,0.27,-0.264
-10.144,0.27,-0.256
-10.14,0.27,-0.256
-10.136,0.274,-0.248
-10.132,0.274,-0.24
-10.128,0.274,-0.24
-10.124,0.278,-0.232
-10.12,0.282,-0.232
-10.116,0.278,-0.224
-10.112,0.278,-0.216
-10.108,0.278,-0.216
-10.104,0.278,-0.216
-10.1,0.278,-0.2
-10.096,0.278,-0.2
-10.092,0.278,-0.192
-10.088,0.274,-0.192
-10.084,0.278,-0.192
-10.08,0.274,-0.184
-10.076,0.27,-0.176
-10.072,0.27,-0.176
-10.068,0.274,-0.168
-10.064,0.27,-0.168
-10.06,0.266,-0.16
-10.056,0.266,-0.16
-10.052,0.266,-0.16
-10.048,0.262,-0.152
-10.044,0.254,-0.144
-10.04,0.258,-0.152
-10.036,0.254,-0.144
-10.032,0.254,-0.144
-10.028,0.25,-0.128
-10.024,0.242,-0.136
-10.02,0.242,-0.128
-10.016,0.238,-0.12
-10.012,0.234,-0.12
-10.008,0.23,-0.112
-10.004,0.222,-0.104
-10,0.222,-0.096
-9.996,0.214,-0.104
-9.992,0.21,-0.08800001
-9.988,0.206,-0.096
-9.984,0.202,-0.08000001
-9.98,0.194,-0.08800001
-9.976,0.19,-0.072
-9.972,0.19,-0.072
-9.968,0.182,-0.072
-9.964,0.174,-0.064
-9.96,0.17,-0.064
-9.956,0.162,-0.056
-9.952,0.158,-0.048
-9.948,0.15,-0.056
-9.944,0.142,-0.048
-9.94,0.134,-0.048
-9.936,0.134,-0.04
-9.932,0.126,-0.04
-9.928,0.118,-0.04
-9.924,0.11,-0.032
-9.92,0.106,-0.032
-9.916,0.098,-0.032
-9.912,0.09,-0.024
-9.908,0.086,-0.032
-9.904,0.078,-0.024
-9.9,0.07,-0.024
-9.896,0.066,-0.024
-9.892,0.058,-0.024
-9.888,0.05,-0.016
-9.884,0.038,-0.008
-9.88,0.034,-0.016
-9.876,0.026,0
-9.872,0.018,-0.008
-9.868,0.01,0
-9.864,0.002,0
-9.86,-0.006,0
-9.856,-0.014,-0.008
-9.852,-0.022,0
-9.848,-0.03,0
-9.844,-0.038,0
-9.84,-0.046,0
-9.836,-0.054,0.008
-9.832,-0.062,0
-9.828,-0.07,0.008
-9.824,-0.078,0
-9.82,-0.082,0.008
-9.816,-0.094,0
-9.812,-0.106,0.008
-9.808,-0.11,0
-9.804,-0.118,0.008
-9.8,-0.126,0.008
-9.796,-0.134,0
-9.792,-0.142,0
-9.788,-0.15,0.008
-9.784,-0.158,0
-9.78,-0.166,0
-9.776,-0.17,0
-9.772,-0.182,0
-9.768,-0.186,0.008
-9.764,-0.19,0
-9.76,-0.198,0
-9.756,-0.206,0
-9.752,-0.21,-0.008
-9.748,-0.218,0
-9.744,-0.226,-0.008
-9.74,-0.234,0
-9.736,-0.238,0
-9.732,-0.246,-0.008
-9.728,-0.25,-0.016
-9.724,-0.258,-0.016
-9.72,-0.262,-0.016
-9.716,-0.266,-0.016
-9.712,-0.274,-0.008
-9.708,-0.278,-0.016
-9.704,-0.286,-0.016
-9.7,-0.29,-0.016
-9.696,-0.294,-0.024
-9.692,-0.298,-0.024
-9.688,-0.302,-0.032
-9.684,-0.306,-0.024
-9.68,-0.31,-0.032
-9.676,-0.314,-0.032
-9.672,-0.318,-0.032
-9.668,-0.318,-0.032
-9.664,-0.322,-0.04
-9.66,-0.326,-0.04
-9.656,-0.326,-0.04
-9.652,-0.33,-0.048
-9.648,-0.334,-0.048
-9.644,-0.334,-0.048
-9.64,-0.334,-0.048
-9.636,-0.342,-0.056
-9.632,-0.338,-0.056
-9.628,-0.342,-0.048
-9.624,-0.342,-0.064
-9.62,-0.342,-0.064
-9.616,-0.342,-0.072
-9.612,-0.346,-0.072
-9.608,-0.342,-0.072
-9.604,-0.342,-0.072
-9.6,-0.342,-0.072
-9.596,-0.338,-0.08000001
-9.592,-0.342,-0.072
-9.588,-0.338,-0.08000001
-9.584,-0.338,-0.08000001
-9.58,-0.338,-0.08800001
-9.576,-0.338,-0.08800001
-9.572,-0.33,-0.096
-9.568,-0.33,-0.096
-9.564,-0.326,-0.104
-9.56,-0.326,-0.104
-9.556,-0.322,-0.104
-9.552,-0.318,-0.112
-9.548,-0.314,-0.112
-9.544,-0.314,-0.112
-9.54,-0.306,-0.104
-9.536,-0.302,-0.112
-9.532,-0.298,-0.112
-9.528,-0.294,-0.12
-9.524,-0.29,-0.12
-9.52,-0.282,-0.128
-9.516,-0.278,-0.128
-9.512,-0.27,-0.12
-9.508,-0.27,-0.128
-9.504,-0.262,-0.144
-9.5,-0.254,-0.136
-9.496,-0.25,-0.136
-9.492,-0.242,-0.144
-9.488,-0.234,-0.144
-9.484,-0.23,-0.152
-9.48,-0.226,-0.152
-9.476,-0.218,-0.152
-9.472,-0.21,-0.144
-9.468,-0.202,-0.16
-9.464,-0.198,-0.144
-9.46,-0.19,-0.16
-9.456,-0.182,-0.16
-9.452,-0.174,-0.16
-9.448,-0.166,-0.16
-9.444,-0.158,-0.16
-9.44,-0.15,-0.16
-9.436,-0.142,-0.168
-9.432,-0.134,-0.168
-9.428,-0.13,-0.168
-9.424,-0.118,-0.168
-9.42,-0.11,-0.168
-9.416,-0.098,-0.176
-9.412,-0.09,-0.176
-9.408,-0.086,-0.176
-9.404,-0.078,-0.176
-9.4,-0.062,-0.168
-9.396,-0.058,-0.176
-9.392,-0.046,-0.176
-9.388,-0.042,-0.184
-9.384,-0.03,-0.176
-9.38,-0.018,-0.184
-9.376,-0.014,-0.184
-9.372,-0.002,-0.176
-9.368,0.006,-0.176
-9.364,0.014,-0.176
-9.36,0.022,-0.176
-9.356,0.034,-0.176
-9.352,0.042,-0.184
-9.348,0.05,-0.184
-9.344,0.058,-0.184
-9.34,0.066,-0.176
-9.336,0.078,-0.184
-9.332,0.082,-0.184
-9.328,0.094,-0.184
-9.324,0.102,-0.192
-9.32,0.106,-0.184
-9.316,0.114,-0.184
-9.312,0.126,-0.184
-9.308,0.134,-0.184
-9.304,0.142,-0.176
-9.3,0.15,-0.184
-9.296,0.158,-0.176
-9.292,0.166,-0.184
-9.288,0.178,-0.184
-9.284,0.182,-0.184
-9.28,0.19,-0.184
-9.276,0.198,-0.184
-9.272,0.198,-0.176
-9.268,0.21,-0.192
-9.264,0.218,-0.184
-9.26,0.226,-0.184
-9.256,0.23,-0.176
-9.252,0.234,-0.184
-9.248,0.242,-0.184
-9.244,0.25,-0.184
-9.24,0.254,-0.184
-9.236,0.262,-0.184
-9.232,0.266,-0.184
-9.228,0.27,-0.184
-9.224,0.278,-0.192
-9.22,0.278,-0.184
-9.216,0.286,-0.184
-9.212,0.294,-0.184
-9.208,0.294,-0.176
-9.204,0.298,-0.192
-9.2,0.302,-0.184
-9.196,0.31,-0.184
-9.192,0.314,-0.184
-9.188,0.318,-0.184
-9.184,0.322,-0.184
-9.18,0.322,-0.184
-9.176,0.322,-0.184
-9.172,0.322,-0.176
-9.168,0.322,-0.184
-9.164,0.322,-0.176
-9.16,0.322,-0.176
-9.156,0.322,-0.184
-9.152,0.322,-0.184
-9.148,0.322,-0.184
-9.144,0.322,-0.184
-9.14,0.322,-0.184
-9.136,0.322,-0.176
-9.132,0.322,-0.184
-9.128,0.322,-0.176
-9.124,0.322,-0.176
-9.12,0.322,-0.184
-9.116,0.322,-0.176
-9.112,0.322,-0.176
-9.108,0.322,-0.184
-9.104,0.322,-0.176
-9.1,0.322,-0.184
-9.096,0.322,-0.184
-9.092,0.322,-0.184
-9.088,0.322,-0.184
-9.084,0.322,-0.176
-9.08,0.322,-0.184
-9.076,0.322,-0.168
-9.072,0.322,-0.184
-9.068,0.322,-0.176
-9.064,0.322,-0.184
-9.06,0.322,-0.176
-9.056,0.322,-0.184
-9.052,0.318,-0.176
-9.048,0.314,-0.184
-9.044,0.31,-0.176
-9.04,0.31,-0.184
-9.036,0.306,-0.176
-9.032,0.298,-0.176
-9.028,0.294,-0.176
-9.024,0.294,-0.168
-9.02,0.286,-0.176
-9.016,0.282,-0.176
-9.012,0.274,-0.176
-9.008,0.274,-0.176
-9.004,0.266,-0.176
-9,0.262,-0.176
-8.996,0.258,-0.168
-8.992,0.25,-0.176
-8.988,0.238,-0.176
-8.984,0.238,-0.176
-8.98,0.23,-0.168
-8.976,0.222,-0.176
-8.972,0.218,-0.176
-8.968,0.214,-0.168
-8.964,0.206,-0.176
-8.96,0.198,-0.176
-8.956,0.19,-0.168
-8.952,0.182,-0.168
-8.948,0.178,-0.16
-8.944,0.17,-0.168
-8.94,0.158,-0.16
-8.936,0.154,-0.168
-8.932,0.146,-0.16
-8.928,0.138,-0.16
-8.924,0.122,-0.16
-8.92,0.122,-0.16
-8.916,0.114,-0.16
-8.912,0.102,-0.16
-8.908,0.094,-0.16
-8.904,0.086,-0.16
-8.9,0.078,-0.152
-8.896,0.07,-0.152
-8.892,0.066,-0.152
-8.888,0.054,-0.152
-8.884,0.046,-0.152
-8.88,0.034,-0.144
-8.876,0.026,-0.144
-8.872,0.018,-0.144
-8.868,0.01,-0.144
-8.864,-0.002,-0.144
-8.86,-0.01,-0.144
-8.856,-0.018,-0.136
-8.852,-0.022,-0.136
-8.848,-0.038,-0.136
-8.844,-0.046,-0.144
-8.84,-0.05,-0.136
-8.836,-0.062,-0.136
-8.832,-0.074,-0.128
-8.828,-0.082,-0.136
-8.824,-0.086,-0.128
-8.82,-0.098,-0.12
-8.816,-0.106,-0.128
-8.812,-0.118,-0.128
-8.808,-0.126,-0.128
-8.804,-0.134,-0.12
-8.8,-0.142,-0.12
-8.796,-0.15,-0.112
-8.792,-0.158,-0.12
-8.788,-0.166,-0.12
-8.784,-0.178,-0.112
-8.78,-0.186,-0.112
-8.776,-0.186,-0.104
-8.772,-0.194,-0.104
-8.768,-0.198,-0.104
-8.764,-0.21,-0.096
-8.76,-0.218,-0.096
-8.756,-0.226,-0.096
-8.752,-0.234,-0.096
-8.748,-0.238,-0.08800001
-8.744,-0.246,-0.08000001
-8.74,-0.25,-0.08800001
-8.736,-0.262,-0.08800001
-8.732,-0.262,-0.08000001
-8.728,-0.27,-0.08000001
-8.724,-0.278,-0.08000001
-8.72,-0.282,-0.08000001
-8.716,-0.29,-0.072
-8.712,-0.294,-0.072
-8.708,-0.302,-0.072
-8.704,-0.302,-0.064
-8.7,-0.31,-0.072
-8.696,-0.31,-0.064
-8.692,-0.318,-0.056
-8.688,-0.318,-0.056
-8.684,-0.326,-0.064
-8.68,-0.33,-0.056
-8.676,-0.33,-0.056
-8.672,-0.334,-0.048
-8.668,-0.334,-0.048
-8.664,-0.338,-0.04
-8.66,-0.342,-0.048
-8.656,-0.346,-0.04
-8.652,-0.346,-0.04
-8.648,-0.346,-0.04
-8.644,-0.35,-0.04
-8.64,-0.35,-0.032
-8.636,-0.354,-0.032
-8.632,-0.35,-0.024
-8.628,-0.354,-0.024
-8.624,-0.354,-0.024
-8.62,-0.354,-0.024
-8.616,-0.35,-0.024
-8.612,-0.35,-0.016
-8.608,-0.35,-0.016
-8.604,-0.35,-0.008
-8.6,-0.35,-0.008
-8.596,-0.346,-0.016
-8.592,-0.346,-0.008
-8.588,-0.342,-0.016
-8.584,-0.342,-0.008
-8.58,-0.338,-0.008
-8.576,-0.338,-0.008
-8.572,-0.334,0
-8.568,-0.33,0.008
-8.564,-0.326,0.008
-8.56,-0.326,0.008
-8.556,-0.318,0.008
-8.552,-0.318,0.008
-8.548,-0.314,0.016
-8.544,-0.31,0.016
-8.54,-0.302,0.016
-8.536,-0.302,0.024
-8.532,-0.294,0.016
-8.528,-0.29,0.024
-8.524,-0.286,0.024
-8.52,-0.274,0.024
-8.516,-0.27,0.032
-8.512,-0.262,0.032
-8.508,-0.258,0.032
-8.504,-0.254,0.032
-8.5,-0.246,0.04
-8.496,-0.242,0.032
-8.492,-0.234,0.04
-8.488,-0.226,0.04
-8.484,-0.222,0.04
-8.48,-0.21,0.032
-8.476,-0.206,0.032
-8.472,-0.202,0.04
-8.468,-0.19,0.04
-8.464,-0.186,0.048
-8.46,-0.182,0.04
-8.456,-0.174,0.04
-8.452,-0.162,0.04
-8.448,-0.158,0.04
-8.444,-0.15,0.048
-8.44,-0.142,0.04
-8.436,-0.13,0.04
-8.432,-0.126,0.048
-8.428,-0.118,0.048
-8.424,-0.11,0.04
-8.42,-0.098,0.048
-8.416,-0.09,0.048
-8.412,-0.082,0.048
-8.408,-0.07,0.048
-8.404,-0.066,0.04
-8.4,-0.062,0.04
-8.396,-0.05,0.048
-8.392,-0.042,0.048
-8.388,-0.034,0.048
-8.384,-0.022,0.048
-8.38,-0.014,0.048
-8.376,-0.01,0.048
-8.372,0.002,0.048
-8.368,0.006,0.04
-8.364,0.014,0.048
-8.36,0.026,0.04
-8.356,0.03,0.04
-8.352,0.042,0.04
-8.348,0.054,0.04
-8.344,0.058,0.04
-8.34,0.066,0.04
-8.336,0.074,0.032
-8.332,0.078,0.04
-8.328,0.09,0.032
-8.324,0.098,0.032
-8.32,0.106,0.032
-8.316,0.114,0.032
-8.312,0.118,0.032
-8.308,0.126,0.032
-8.304,0.134,0.024
-8.3,0.142,0.024
-8.296,0.146,0.024
-8.292,0.154,0.024
-8.288,0.162,0.016
-8.284,0.174,0.008
-8.28,0.174,0.016
-8.276,0.182,0.008
-8.272,0.19,0.008
-8.268,0.194,0
-8.264,0.198,0.008
-8.26,0.206,0
-8.256,0.21,-0.008
-8.252,0.214,-0.008
-8.248,0.218,-0.008
-8.244,0.226,-0.008
-8.24,0.23,-0.016
-8.236,0.234,-0.024
-8.232,0.242,-0.016
-8.228,0.246,-0.024
-8.224,0.25,-0.032
-8.22,0.25,-0.032
-8.216,0.258,-0.04
-8.212,0.262,-0.04
-8.208,0.266,-0.04
-8.204,0.266,-0.048
-8.2,0.27,-0.048
-8.196,0.274,-0.056
-8.192,0.274,-0.064
-8.188,0.282,-0.064
-8.184,0.282,-0.064
-8.18,0.286,-0.072
-8.176,0.286,-0.08000001
-8.172,0.286,-0.08000001
-8.168,0.286,-0.08800001
-8.164,0.29,-0.096
-8.16,0.294,-0.096
-8.156,0.294,-0.096
-8.152,0.298,-0.096
-8.148,0.298,-0.112
-8.144,0.298,-0.112
-8.14,0.294,-0.104
-8.136,0.298,-0.112
-8.132,0.298,-0.12
-8.128,0.298,-0.12
-8.124,0.298,-0.128
-8.12,0.298,-0.144
-8.116,0.298,-0.136
-8.112,0.298,-0.144
-8.108,0.294,-0.152
-8.104,0.294,-0.16
-8.1,0.294,-0.16
-8.096,0.29,-0.16
-8.092,0.294,-0.168
-8.088,0.29,-0.176
-8.084,0.286,-0.176
-8.08,0.29,-0.184
-8.076,0.282,-0.192
-8.072,0.278,-0.192
-8.068,0.278,-0.192
-8.064,0.278,-0.192
-8.06,0.274,-0.208
-8.056,0.27,-0.208
-8.052,0.266,-0.208
-8.048,0.266,-0.216
-8.044,0.258,-0.224
-8.04,0.254,-0.216
-8.036,0.254,-0.224
-8.032,0.25,-0.224
-8.028,0.246,-0.24
-8.024,0.242,-0.232
-8.02,0.238,-0.24
-8.016,0.234,-0.248
-8.012,0.226,-0.248
-8.008,0.222,-0.248
-8.004,0.218,-0.256
-8,0.214,-0.264
-7.996,0.21,-0.256
-7.992,0.202,-0.264
-7.988,0.198,-0.264
-7.984,0.194,-0.264
-7.98,0.19,-0.272
-7.976,0.182,-0.272
-7.972,0.174,-0.272
-7.968,0.17,-0.28
-7.964,0.162,-0.28
-7.96,0.158,-0.28
-7.956,0.154,-0.288
-7.952,0.146,-0.28
-7.948,0.142,-0.28
-7.944,0.134,-0.288
-7.94,0.126,-0.288
-7.936,0.122,-0.288
-7.932,0.114,-0.288
-7.928,0.11,-0.28
-7.924,0.102,-0.288
-7.92,0.094,-0.288
-7.916,0.086,-0.296
-7.912,0.082,-0.296
-7.908,0.07,-0.288
-7.904,0.066,-0.288
-7.9,0.062,-0.288
-7.896,0.058,-0.288
-7.892,0.054,-0.288
-7.888,0.042,-0.288
-7.884,0.038,-0.28
-7.88,0.03,-0.28
-7.876,0.022,-0.288
-7.872,0.014,-0.28
-7.868,0.006,-0.288
-7.864,0.002,-0.272
-7.86,-0.006,-0.28
-7.856,-0.01,-0.28
-7.852,-0.022,-0.272
-7.848,-0.022,-0.272
-7.844,-0.034,-0.272
-7.84,-0.042,-0.272
-7.836,-0.046,-0.272
-7.832,-0.05,-0.264
-7.828,-0.058,-0.264
-7.824,-0.062,-0.256
-7.82,-0.07,-0.256
-7.816,-0.074,-0.264
-7.812,-0.082,-0.256
-7.808,-0.09,-0.256
-7.804,-0.098,-0.248
-7.8,-0.102,-0.24
-7.796,-0.106,-0.24
-7.792,-0.114,-0.232
-7.788,-0.118,-0.232
-7.784,-0.126,-0.224
-7.78,-0.13,-0.224
-7.776,-0.134,-0.216
-7.772,-0.138,-0.216
-7.768,-0.146,-0.216
-7.764,-0.15,-0.216
-7.76,-0.154,-0.2
-7.756,-0.158,-0.2
-7.752,-0.162,-0.192
-7.748,-0.166,-0.192
-7.744,-0.174,-0.184
-7.74,-0.174,-0.184
-7.736,-0.182,-0.176
-7.732,-0.186,-0.168
-7.728,-0.186,-0.168
-7.724,-0.19,-0.16
-7.72,-0.19,-0.152
-7.716,-0.194,-0.144
-7.712,-0.202,-0.144
-7.708,-0.198,-0.136
-7.704,-0.206,-0.128
-7.7,-0.206,-0.128
-7.696,-0.21,-0.128
-7.692,-0.21,-0.12
-7.688,-0.214,-0.104
-7.684,-0.214,-0.104
-7.68,-0.214,-0.096
-7.676,-0.218,-0.096
-7.672,-0.222,-0.08800001
-7.668,-0.226,-0.08000001
-7.664,-0.226,-0.072
-7.66,-0.222,-0.064
-7.656,-0.226,-0.056
-7.652,-0.226,-0.056
-7.648,-0.226,-0.048
-7.644,-0.23,-0.04
-7.64,-0.23,-0.032
-7.636,-0.23,-0.032
-7.632,-0.23,-0.032
-7.628,-0.226,-0.024
-7.624,-0.226,-0.016
-7.62,-0.226,-0.008
-7.616,-0.226,0
-7.612,-0.226,0
-7.608,-0.226,0.008
-7.604,-0.226,0.016
-7.6,-0.222,0.024
-7.596,-0.222,0.032
-7.592,-0.222,0.04
-7.588,-0.214,0.04
-7.584,-0.218,0.048
-7.58,-0.214,0.048
-7.576,-0.21,0.056
-7.572,-0.206,0.064
-7.568,-0.206,0.072
-7.564,-0.202,0.072
-7.56,-0.202,0.08000001
-7.556,-0.198,0.08800001
-7.552,-0.198,0.08800001
-7.548,-0.194,0.096
-7.544,-0.194,0.096
-7.54,-0.19,0.096
-7.536,-0.186,0.104
-7.532,-0.186,0.112
-7.528,-0.178,0.112
-7.524,-0.174,0.12
-7.52,-0.174,0.12
-7.516,-0.17,0.128
-7.512,-0.162,0.136
-7.508,-0.162,0.136
-7.504,-0.158,0.136
-7.5,-0.15,0.144
-7.496,-0.15,0.152
-7.492,-0.146,0.152
-7.488,-0.138,0.152
-7.484,-0.134,0.16
-7.48,-0.13,0.168
-7.476,-0.126,0.168
-7.472,-0.126,0.176
-7.468,-0.114,0.176
-7.464,-0.114,0.176
-7.46,-0.106,0.176
-7.456,-0.102,0.184
-7.452,-0.098,0.184
-7.448,-0.09,0.184
-7.444,-0.086,0.184
-7.44,-0.086,0.192
-7.436,-0.078,0.192
-7.432,-0.074,0.192
-7.428,-0.07,0.192
-7.424,-0.062,0.192
-7.42,-0.058,0.2
-7.416,-0.054,0.208
-7.412,-0.05,0.2
-7.408,-0.046,0.208
-7.404,-0.038,0.2
-7.4,-0.034,0.208
-7.396,-0.026,0.2
-7.392,-0.026,0.208
-7.388,-0.018,0.2
-7.384,-0.014,0.2
-7.38,-0.01,0.208
-7.376,-0.006,0.208
-7.372,0.002,0.2
-7.368,0.006,0.2
-7.364,0.01,0.2
-7.36,0.014,0.2
-7.356,0.018,0.2
-7.352,0.026,0.2
-7.348,0.03,0.192
-7.344,0.034,0.2
-7.34,0.038,0.2
-7.336,0.042,0.2
-7.332,0.046,0.192
-7.328,0.05,0.192
-7.324,0.054,0.184
-7.32,0.062,0.192
-7.316,0.062,0.184
-7.312,0.066,0.184
-7.308,0.07,0.176
-7.304,0.07,0.168
-7.3,0.074,0.176
-7.296,0.078,0.168
-7.292,0.078,0.16
-7.288,0.086,0.16
-7.284,0.086,0.16
-7.28,0.09,0.16
-7.276,0.094,0.152
-7.272,0.098,0.152
-7.268,0.102,0.136
-7.264,0.102,0.136
-7.26,0.106,0.136
-7.256,0.106,0.128
-7.252,0.114,0.12
-7.248,0.114,0.12
-7.244,0.114,0.112
-7.24,0.114,0.112
-7.236,0.122,0.096
-7.232,0.126,0.096
-7.228,0.122,0.096
-7.224,0.126,0.08800001
-7.22,0.13,0.08800001
-7.216,0.13,0.08000001
-7.212,0.134,0.072
-7.208,0.134,0.064
-7.204,0.134,0.056
-7.2,0.138,0.056
-7.196,0.134,0.048
-7.192,0.134,0.04
-7.188,0.134,0.04
-7.184,0.142,0.032
-7.18,0.142,0.016
-7.176,0.142,0.016
-7.172,0.146,0.008
-7.168,0.146,0
-7.164,0.142,-0.008
-7.16,0.146,-0.016
-7.156,0.142,-0.024
-7.152,0.138,-0.032
-7.148,0.146,-0.04
-7.144,0.142,-0.04
-7.14,0.146,-0.048
-7.136,0.146,-0.056
-7.132,0.142,-0.064
-7.128,0.142,-0.072
-7.124,0.146,-0.08800001
-7.12,0.142,-0.08800001
-7.116,0.142,-0.096
-7.112,0.146,-0.104
-7.108,0.138,-0.112
-7.104,0.138,-0.112
-7.1,0.138,-0.128
-7.096,0.138,-0.136
-7.092,0.138,-0.144
-7.088,0.134,-0.152
-7.084,0.134,-0.152
-7.08,0.134,-0.168
-7.076,0.13,-0.168
-7.072,0.13,-0.176
-7.068,0.13,-0.184
-7.064,0.126,-0.192
-7.06,0.126,-0.2
-7.056,0.126,-0.2
-7.052,0.118,-0.208
-7.048,0.118,-0.224
-7.044,0.114,-0.224
-7.04,0.114,-0.232
-7.036,0.114,-0.24
-7.032,0.114,-0.24
-7.028,0.11,-0.256
-7.024,0.11,-0.264
-7.02,0.106,-0.264
-7.016,0.106,-0.272
-7.012,0.102,-0.28
-7.008,0.098,-0.288
-7.004,0.094,-0.288
-7,0.094,-0.296
-6.996,0.09,-0.304
-6.992,0.09,-0.304
-6.988,0.086,-0.304
-6.984,0.086,-0.312
-6.98,0.086,-0.312
-6.976,0.078,-0.32
-6.972,0.074,-0.32
-6.968,0.074,-0.328
-6.964,0.07,-0.328
-6.96,0.07,-0.336
-6.956,0.07,-0.336
-6.952,0.066,-0.336
-6.948,0.066,-0.344
-6.944,0.066,-0.344
-6.94,0.062,-0.336
-6.936,0.058,-0.344
-6.932,0.05,-0.328
-6.928,0.054,-0.368
-6.924,0.05,-0.344
-6.92,0.05,-0.36
-6.916,0.046,-0.352
-6.912,0.038,-0.36
-6.908,0.042,-0.36
-6.904,0.034,-0.352
-6.9,0.038,-0.352
-6.896,0.034,-0.368
-6.892,0.03,-0.344
-6.888,0.026,-0.368
-6.884,0.026,-0.36
-6.88,0.022,-0.36
-6.876,0.022,-0.352
-6.872,0.018,-0.36
-6.868,0.018,-0.352
-6.864,0.014,-0.352
-6.86,0.014,-0.352
-6.856,0.006,-0.352
-6.852,0.006,-0.352
-6.848,0.006,-0.352
-6.844,0.006,-0.336
-6.84,0.002,-0.352
-6.836,0.002,-0.336
-6.832,0.002,-0.336
-6.828,-0.002,-0.336
-6.824,-0.002,-0.336
-6.82,-0.006,-0.328
-6.816,-0.006,-0.328
-6.812,-0.01,-0.32
-6.808,-0.01,-0.32
-6.804,-0.01,-0.312
-6.8,-0.014,-0.312
-6.796,-0.014,-0.304
-6.792,-0.018,-0.304
-6.788,-0.014,-0.296
-6.784,-0.018,-0.304
-6.78,-0.018,-0.288
-6.776,-0.018,-0.296
-6.772,-0.022,-0.272
-6.768,-0.026,-0.28
-6.764,-0.022,-0.264
-6.76,-0.026,-0.264
-6.756,-0.026,-0.256
-6.752,-0.03,-0.256
-6.748,-0.026,-0.248
-6.744,-0.026,-0.24
-6.74,-0.03,-0.232
-6.736,-0.03,-0.232
-6.732,-0.03,-0.216
-6.728,-0.038,-0.224
-6.724,-0.03,-0.208
-6.72,-0.034,-0.2
-6.716,-0.03,-0.2
-6.712,-0.034,-0.192
-6.708,-0.03,-0.192
-6.704,-0.038,-0.176
-6.7,-0.034,-0.168
-6.696,-0.034,-0.168
-6.692,-0.034,-0.16
-6.688,-0.03,-0.152
-6.684,-0.034,-0.136
-6.68,-0.034,-0.144
-6.676,-0.038,-0.128
-6.672,-0.034,-0.12
-6.668,-0.034,-0.112
-6.664,-0.03,-0.104
-6.66,-0.034,-0.096
-6.656,-0.03,-0.08000001
-6.652,-0.034,-0.08000001
-6.648,-0.034,-0.08000001
-6.644,-0.034,-0.064
-6.64,-0.03,-0.064
-6.636,-0.034,-0.048
-6.632,-0.03,-0.048
-6.628,-0.03,-0.032
-6.624,-0.03,-0.016
-6.62,-0.03,-0.016
-6.616,-0.026,-0.008
-6.612,-0.026,-0.008
-6.608,-0.026,0.008
-6.604,-0.03,0.008
-6.6,-0.03,0.016
-6.596,-0.022,0.024
-6.592,-0.026,0.032
-6.588,-0.022,0.04
-6.584,-0.026,0.048
-6.58,-0.03,0.056
-6.576,-0.022,0.064
-6.572,-0.026,0.064
-6.568,-0.022,0.08000001
-6.564,-0.022,0.08800001
-6.56,-0.018,0.08800001
-6.556,-0.018,0.096
-6.552,-0.022,0.096
-6.548,-0.018,0.104
-6.544,-0.018,0.112
-6.54,-0.018,0.12
-6.536,-0.014,0.128
-6.532,-0.018,0.144
-6.528,-0.018,0.136
-6.524,-0.014,0.136
-6.52,-0.014,0.152
-6.516,-0.018,0.16
-6.512,-0.014,0.16
-6.508,-0.014,0.168
-6.504,-0.014,0.168
-6.5,-0.01,0.184
-6.496,-0.014,0.184
-6.492,-0.014,0.192
-6.488,-0.01,0.184
-6.484,-0.01,0.2
-6.48,-0.01,0.2
-6.476,-0.01,0.208
-6.472,-0.006,0.216
-6.468,-0.01,0.216
-6.464,-0.01,0.216
-6.46,-0.01,0.216
-6.456,-0.006,0.232
-6.452,-0.01,0.232
-6.448,-0.01,0.232
-6.444,-0.01,0.232
-6.44,-0.006,0.232
-6.436,-0.01,0.24
-6.432,-0.006,0.248
-6.428,-0.01,0.256
-6.424,-0.01,0.256
-6.42,-0.01,0.256
-6.416,-0.01,0.264
-6.412,-0.006,0.256
-6.408,-0.006,0.264
-6.404,-0.014,0.264
-6.4,-0.01,0.264
-6.396,-0.01,0.272
-6.392,-0.006,0.256
-6.388,-0.014,0.272
-6.384,-0.01,0.264
-6.38,-0.01,0.264
-6.376,-0.014,0.264
-6.372,-0.014,0.256
-6.368,-0.014,0.264
-6.364,-0.014,0.264
-6.36,-0.018,0.256
-6.356,-0.014,0.264
-6.352,-0.018,0.256
-6.348,-0.018,0.264
-6.344,-0.018,0.256
-6.34,-0.022,0.256
-6.336,-0.018,0.248
-6.332,-0.018,0.256
-6.328,-0.022,0.248
-6.324,-0.022,0.256
-6.32,-0.022,0.248
-6.316,-0.022,0.248
-6.312,-0.022,0.248
-6.308,-0.026,0.24
-6.304,-0.022,0.24
-6.3,-0.026,0.24
-6.296,-0.026,0.232
-6.292,-0.03,0.232
-6.288,-0.03,0.232
-6.284,-0.03,0.232
-6.28,-0.034,0.216
-6.276,-0.034,0.216
-6.272,-0.03,0.216
-6.268,-0.034,0.2
-6.264,-0.038,0.208
-6.26,-0.038,0.2
-6.256,-0.038,0.192
-6.252,-0.042,0.192
-6.248,-0.038,0.184
-6.244,-0.042,0.176
-6.24,-0.038,0.176
-6.236,-0.042,0.168
-6.232,-0.046,0.152
-6.228,-0.046,0.152
-6.224,-0.042,0.144
-6.22,-0.046,0.136
-6.216,-0.046,0.136
-6.212,-0.05,0.128
-6.208,-0.05,0.12
-6.204,-0.05,0.112
-6.2,-0.05,0.104
-6.196,-0.054,0.104
-6.192,-0.05,0.096
-6.188,-0.054,0.096
-6.184,-0.054,0.08800001
-6.18,-0.058,0.08000001
-6.176,-0.058,0.08000001
-6.172,-0.058,0.064
-6.168,-0.058,0.056
-6.164,-0.058,0.056
-6.16,-0.062,0.048
-6.156,-0.058,0.04
-6.152,-0.058,0.024
-6.148,-0.062,0.024
-6.144,-0.058,0.008
-6.14,-0.062,0.008
-6.136,-0.062,0
-6.132,-0.062,-0.008
-6.128,-0.062,-0.016
-6.124,-0.062,-0.024
-6.12,-0.062,-0.032
-6.116,-0.062,-0.04
-6.112,-0.062,-0.048
-6.108,-0.062,-0.056
-6.104,-0.062,-0.064
-6.1,-0.062,-0.072
-6.096,-0.062,-0.08000001
-6.092,-0.062,-0.08000001
-6.088,-0.066,-0.096
-6.084,-0.062,-0.104
-6.08,-0.062,-0.112
-6.076,-0.062,-0.12
-6.072,-0.062,-0.128
-6.068,-0.062,-0.136
-6.064,-0.058,-0.144
-6.06,-0.058,-0.152
-6.056,-0.062,-0.16
-6.052,-0.058,-0.168
-6.048,-0.058,-0.168
-6.044,-0.058,-0.168
-6.04,-0.058,-0.184
-6.036,-0.054,-0.192
-6.032,-0.05,-0.2
-6.028,-0.05,-0.2
-6.024,-0.054,-0.208
-6.02,-0.054,-0.216
-6.016,-0.05,-0.224
-6.012,-0.046,-0.232
-6.008,-0.046,-0.232
-6.004,-0.046,-0.24
-6,-0.042,-0.248
-5.996,-0.042,-0.256
-5.992,-0.038,-0.264
-5.988,-0.038,-0.264
-5.984,-0.034,-0.272
-5.98,-0.03,-0.272
-5.976,-0.034,-0.272
-5.972,-0.026,-0.28
-5.968,-0.03,-0.296
-5.964,-0.026,-0.288
-5.96,-0.018,-0.288
-5.956,-0.022,-0.296
-5.952,-0.018,-0.304
-5.948,-0.018,-0.304
-5.944,-0.014,-0.312
-5.94,-0.01,-0.32
-5.936,-0.006,-0.312
-5.932,-0.006,-0.312
-5.928,-0.006,-0.312
-5.924,-0.002,-0.328
-5.92,0.002,-0.32
-5.916,0.006,-0.328
-5.912,0.01,-0.32
-5.908,0.01,-0.328
-5.904,0.014,-0.328
-5.9,0.018,-0.328
-5.896,0.022,-0.328
-5.892,0.022,-0.336
-5.888,0.026,-0.328
-5.884,0.03,-0.328
-5.88,0.03,-0.336
-5.876,0.034,-0.328
-5.872,0.038,-0.336
-5.868,0.038,-0.336
-5.864,0.038,-0.328
-5.86,0.046,-0.328
-5.856,0.05,-0.328
-5.852,0.054,-0.328
-5.848,0.054,-0.328
-5.844,0.058,-0.328
-5.84,0.062,-0.328
-5.836,0.066,-0.32
-5.832,0.07,-0.328
-5.828,0.07,-0.32
-5.824,0.074,-0.312
-5.82,0.074,-0.32
-5.816,0.078,-0.32
-5.812,0.082,-0.304
-5.808,0.082,-0.312
-5.804,0.086,-0.312
-5.8,0.09,-0.304
-5.796,0.09,-0.296
-5.792,0.094,-0.296
-5.788,0.098,-0.296
-5.784,0.102,-0.288
-5.78,0.106,-0.288
-5.776,0.11,-0.28
-5.772,0.11,-0.272
-5.768,0.114,-0.272
-5.764,0.114,-0.272
-5.76,0.118,-0.264
-5.756,0.122,-0.264
-5.752,0.126,-0.256
-5.748,0.126,-0.248
-5.744,0.13,-0.248
-5.74,0.13,-0.24
-5.736,0.134,-0.232
-5.732,0.138,-0.232
-5.728,0.138,-0.224
-5.724,0.142,-0.216
-5.72,0.142,-0.2
-5.716,0.146,-0.2
-5.712,0.15,-0.192
-5.708,0.146,-0.192
-5.704,0.146,-0.192
-5.7,0.154,-0.184
-5.696,0.154,-0.176
-5.692,0.154,-0.176
-5.688,0.158,-0.16
-5.684,0.158,-0.16
-5.68,0.162,-0.152
-5.676,0.158,-0.152
-5.672,0.158,-0.136
-5.668,0.162,-0.128
-5.664,0.162,-0.128
-5.66,0.166,-0.12
-5.656,0.166,-0.112
-5.652,0.162,-0.104
-5.648,0.166,-0.096
-5.644,0.17,-0.08800001
-5.64,0.166,-0.08000001
-5.636,0.166,-0.08000001
-5.632,0.166,-0.072
-5.628,0.17,-0.056
-5.624,0.166,-0.056
-5.62,0.166,-0.04
-5.616,0.166,-0.032
-5.612,0.166,-0.032
-5.608,0.166,-0.032
-5.604,0.166,-0.024
-5.6,0.166,-0.008
-5.596,0.162,-0.008
-5.592,0.162,0
-5.588,0.162,0.008
-5.584,0.162,0.008
-5.58,0.158,0.016
-5.576,0.158,0.032
-5.572,0.154,0.032
-5.568,0.154,0.032
-5.564,0.154,0.048
-5.56,0.15,0.048
-5.556,0.15,0.056
-5.552,0.146,0.064
-5.548,0.142,0.072
-5.544,0.138,0.08000001
-5.54,0.138,0.08000001
-5.536,0.134,0.08800001
-5.532,0.134,0.096
-5.528,0.134,0.096
-5.524,0.13,0.104
-5.52,0.126,0.104
-5.516,0.122,0.104
-5.512,0.118,0.112
-5.508,0.114,0.112
-5.504,0.114,0.12
-5.5,0.106,0.128
-5.496,0.106,0.136
-5.492,0.102,0.136
-5.488,0.098,0.144
-5.484,0.094,0.144
-5.48,0.094,0.152
-5.476,0.086,0.152
-5.472,0.082,0.152
-5.468,0.078,0.16
-5.464,0.074,0.16
-5.46,0.07,0.168
-5.456,0.066,0.168
-5.452,0.066,0.176
-5.448,0.058,0.176
-5.444,0.054,0.184
-5.44,0.054,0.176
-5.436,0.046,0.192
-5.432,0.038,0.192
-5.428,0.034,0.192
-5.424,0.03,0.2
-5.42,0.026,0.2
-5.416,0.022,0.2
-5.412,0.018,0.208
-5.408,0.01,0.2
-5.404,0.006,0.208
-5.4,-0.002,0.208
-5.396,-0.006,0.208
-5.392,-0.014,0.208
-5.388,-0.014,0.208
-5.384,-0.018,0.216
-5.38,-0.026,0.216
-5.376,-0.03,0.216
-5.372,-0.034,0.216
-5.368,-0.042,0.208
-5.364,-0.05,0.216
-5.36,-0.05,0.208
-5.356,-0.062,0.208
-5.352,-0.062,0.216
-5.348,-0.07,0.216
-5.344,-0.074,0.208
-5.34,-0.078,0.208
-5.336,-0.086,0.208
-5.332,-0.094,0.208
-5.328,-0.094,0.208
-5.324,-0.102,0.216
-5.32,-0.106,0.216
-5.316,-0.11,0.2
-5.312,-0.118,0.208
-5.308,-0.122,0.208
-5.304,-0.126,0.2
-5.3,-0.13,0.208
-5.296,-0.138,0.208
-5.292,-0.142,0.2
-5.288,-0.15,0.2
-5.284,-0.15,0.2
-5.28,-0.158,0.184
-5.276,-0.162,0.192
-5.272,-0.166,0.192
-5.268,-0.174,0.184
-5.264,-0.178,0.176
-5.26,-0.186,0.176
-5.256,-0.182,0.168
-5.252,-0.186,0.168
-5.248,-0.19,0.168
-5.244,-0.194,0.16
-5.24,-0.198,0.168
-5.236,-0.198,0.16
-5.232,-0.206,0.16
-5.228,-0.206,0.152
-5.224,-0.21,0.144
-5.22,-0.214,0.144
-5.216,-0.214,0.136
-5.212,-0.222,0.128
-5.208,-0.222,0.128
-5.204,-0.226,0.12
-5.2,-0.226,0.112
-5.196,-0.23,0.112
-5.192,-0.234,0.112
-5.188,-0.234,0.112
-5.184,-0.234,0.104
-5.18,-0.238,0.096
-5.176,-0.238,0.096
-5.172,-0.242,0.08800001
-5.168,-0.242,0.08800001
-5.164,-0.246,0.08000001
-5.16,-0.242,0.08000001
-5.156,-0.246,0.072
-5.152,-0.242,0.064
-5.148,-0.25,0.064
-5.144,-0.246,0.056
-5.14,-0.25,0.056
-5.136,-0.246,0.048
-5.132,-0.25,0.04
-5.128,-0.246,0.032
-5.124,-0.246,0.032
-5.12,-0.246,0.024
-5.116,-0.246,0.016
-5.112,-0.242,0.008
-5.108,-0.238,0.008
-5.104,-0.242,0
-5.1,-0.238,-0.008
-5.096,-0.238,-0.008
-5.092,-0.234,-0.008
-5.088,-0.234,-0.024
-5.084,-0.23,-0.032
-5.08,-0.23,-0.032
-5.076,-0.222,-0.04
-5.072,-0.222,-0.04
-5.068,-0.222,-0.048
-5.064,-0.214,-0.056
-5.06,-0.214,-0.064
-5.056,-0.21,-0.056
-5.052,-0.206,-0.072
-5.048,-0.198,-0.072
-5.044,-0.202,-0.08000001
-5.04,-0.198,-0.08000001
-5.036,-0.19,-0.08800001
-5.032,-0.186,-0.104
-5.028,-0.182,-0.104
-5.024,-0.182,-0.112
-5.02,-0.178,-0.112
-5.016,-0.174,-0.112
-5.012,-0.166,-0.12
-5.008,-0.162,-0.128
-5.004,-0.158,-0.128
-5,-0.154,-0.144
-4.996,-0.146,-0.136
-4.992,-0.142,-0.144
-4.988,-0.134,-0.152
-4.984,-0.126,-0.152
-4.98,-0.122,-0.16
-4.976,-0.114,-0.16
-4.972,-0.114,-0.168
-4.968,-0.102,-0.168
-4.964,-0.098,-0.168
-4.96,-0.09,-0.168
-4.956,-0.086,-0.176
-4.952,-0.082,-0.176
-4.948,-0.074,-0.184
-4.944,-0.062,-0.192
-4.94,-0.058,-0.184
-4.936,-0.05,-0.192
-4.932,-0.046,-0.192
-4.928,-0.034,-0.2
-4.924,-0.03,-0.2
-4.92,-0.022,-0.2
-4.916,-0.01,-0.2
-4.912,-0.01,-0.2
-4.908,-0.006,-0.2
-4.904,0.006,-0.208
-4.9,0.01,-0.208
-4.896,0.018,-0.208
-4.892,0.026,-0.208
-4.888,0.034,-0.208
-4.884,0.042,-0.2
-4.88,0.05,-0.208
-4.876,0.058,-0.208
-4.872,0.062,-0.208
-4.868,0.07,-0.208
-4.864,0.074,-0.208
-4.86,0.078,-0.216
-4.856,0.086,-0.216
-4.852,0.094,-0.216
-4.848,0.102,-0.208
-4.844,0.11,-0.208
-4.84,0.118,-0.208
-4.836,0.122,-0.208
-4.832,0.126,-0.208
-4.828,0.134,-0.216
-4.824,0.142,-0.208
-4.82,0.146,-0.208
-4.816,0.15,-0.208
-4.812,0.158,-0.2
-4.808,0.17,-0.208
-4.804,0.174,-0.208
-4.8,0.178,-0.2
-4.796,0.182,-0.2
-4.792,0.194,-0.2
-4.788,0.194,-0.208
-4.784,0.198,-0.208
-4.78,0.206,-0.2
-4.776,0.21,-0.192
-4.772,0.214,-0.192
-4.768,0.222,-0.192
-4.764,0.226,-0.192
-4.76,0.23,-0.184
-4.756,0.234,-0.192
-4.752,0.242,-0.192
-4.748,0.242,-0.184
-4.744,0.246,-0.176
-4.74,0.25,-0.176
-4.736,0.254,-0.168
-4.732,0.262,-0.176
-4.728,0.262,-0.168
-4.724,0.266,-0.168
-4.72,0.27,-0.168
-4.716,0.27,-0.16
-4.712,0.274,-0.16
-4.708,0.278,-0.152
-4.704,0.278,-0.16
-4.7,0.282,-0.152
-4.696,0.286,-0.144
-4.692,0.286,-0.152
-4.688,0.29,-0.144
-4.684,0.286,-0.136
-4.68,0.294,-0.136
-4.676,0.29,-0.128
-4.672,0.294,-0.128
-4.668,0.294,-0.12
-4.664,0.298,-0.128
-4.66,0.294,-0.112
-4.656,0.294,-0.12
-4.652,0.298,-0.112
-4.648,0.294,-0.104
-4.644,0.298,-0.104
-4.64,0.298,-0.104
-4.636,0.298,-0.104
-4.632,0.294,-0.096
-4.628,0.298,-0.096
-4.624,0.29,-0.08800001
-4.62,0.29,-0.08800001
-4.616,0.294,-0.08000001
-4.612,0.29,-0.08800001
-4.608,0.29,-0.072
-4.604,0.286,-0.072
-4.6,0.282,-0.064
-4.596,0.282,-0.064
-4.592,0.278,-0.056
-4.588,0.278,-0.056
-4.584,0.274,-0.048
-4.58,0.27,-0.056
-4.576,0.27,-0.048
-4.572,0.266,-0.04
-4.568,0.262,-0.04
-4.564,0.258,-0.032
-4.56,0.254,-0.024
-4.556,0.25,-0.032
-4.552,0.246,-0.024
-4.548,0.246,-0.024
-4.544,0.238,-0.016
-4.54,0.238,-0.016
-4.536,0.23,-0.008
-4.532,0.222,-0.008
-4.528,0.222,-0.008
-4.524,0.214,-0.008
-4.52,0.21,0
-4.516,0.202,0
-4.512,0.198,0.008
-4.508,0.194,0.008
-4.504,0.19,0
-4.5,0.182,0.016
-4.496,0.178,0.016
-4.492,0.17,0.016
-4.488,0.162,0.024
-4.484,0.158,0.024
-4.48,0.15,0.032
-4.476,0.142,0.032
-4.472,0.134,0.032
-4.468,0.126,0.032
-4.464,0.122,0.032
-4.46,0.11,0.04
-4.456,0.11,0.04
-4.452,0.098,0.04
-4.448,0.094,0.048
-4.444,0.086,0.048
-4.44,0.074,0.056
-4.436,0.07,0.056
-4.432,0.066,0.056
-4.428,0.054,0.056
-4.424,0.05,0.056
-4.42,0.038,0.064
-4.416,0.03,0.064
-4.412,0.026,0.064
-4.408,0.018,0.064
-4.404,0.006,0.064
-4.4,-0.002,0.072
-4.396,-0.01,0.064
-4.392,-0.018,0.064
-4.388,-0.026,0.072
-4.384,-0.034,0.072
-4.38,-0.042,0.072
-4.376,-0.046,0.08000001
-4.372,-0.058,0.08000001
-4.368,-0.066,0.08000001
-4.364,-0.074,0.08000001
-4.36,-0.082,0.08800001
-4.356,-0.09,0.08800001
-4.352,-0.098,0.08000001
-4.348,-0.106,0.08800001
-4.344,-0.114,0.08000001
-4.34,-0.126,0.08800001
-4.336,-0.13,0.08800001
-4.332,-0.142,0.08800001
-4.328,-0.146,0.08800001
-4.324,-0.158,0.08800001
-4.32,-0.166,0.08800001
-4.316,-0.17,0.096
-4.312,-0.174,0.096
-4.308,-0.186,0.096
-4.304,-0.19,0.096
-4.3,-0.194,0.08800001
-4.296,-0.202,0.096
-4.292,-0.21,0.096
-4.288,-0.214,0.096
-4.284,-0.222,0.096
-4.28,-0.226,0.096
-4.276,-0.234,0.096
-4.272,-0.242,0.096
-4.268,-0.25,0.096
-4.264,-0.254,0.096
-4.26,-0.258,0.096
-4.256,-0.266,0.096
-4.252,-0.27,0.096
-4.248,-0.274,0.096
-4.244,-0.282,0.096
-4.24,-0.286,0.096
-4.236,-0.29,0.096
-4.232,-0.298,0.096
-4.228,-0.302,0.096
-4.224,-0.306,0.096
-4.22,-0.31,0.096
-4.216,-0.31,0.096
-4.212,-0.314,0.096
-4.208,-0.318,0.096
-4.204,-0.322,0.08800001
-4.2,-0.326,0.08800001
-4.196,-0.326,0.08800001
-4.192,-0.33,0.08800001
-4.188,-0.334,0.08800001
-4.184,-0.334,0.08000001
-4.18,-0.338,0.08800001
-4.176,-0.334,0.08800001
-4.172,-0.338,0.08000001
-4.168,-0.338,0.08800001
-4.164,-0.338,0.08800001
-4.16,-0.338,0.08000001
-4.156,-0.338,0.08000001
-4.152,-0.342,0.08800001
-4.148,-0.338,0.08000001
-4.144,-0.342,0.08800001
-4.14,-0.338,0.072
-4.136,-0.338,0.072
-4.132,-0.338,0.072
-4.128,-0.338,0.08000001
-4.124,-0.334,0.072
-4.12,-0.334,0.072
-4.116,-0.33,0.072
-4.112,-0.326,0.072
-4.108,-0.326,0.072
-4.104,-0.326,0.064
-4.1,-0.318,0.064
-4.096,-0.318,0.064
-4.092,-0.314,0.064
-4.088,-0.306,0.064
-4.084,-0.31,0.064
-4.08,-0.302,0.056
-4.076,-0.298,0.056
-4.072,-0.294,0.048
-4.068,-0.29,0.056
-4.064,-0.282,0.056
-4.06,-0.282,0.048
-4.056,-0.274,0.056
-4.052,-0.27,0.04
-4.048,-0.262,0.04
-4.044,-0.258,0.048
-4.04,-0.254,0.04
-4.036,-0.246,0.04
-4.032,-0.242,0.032
-4.028,-0.23,0.04
-4.024,-0.23,0.032
-4.02,-0.222,0.032
-4.016,-0.214,0.024
-4.012,-0.206,0.032
-4.008,-0.202,0.032
-4.004,-0.19,0.024
-4,-0.19,0.024
-3.996,-0.178,0.024
-3.992,-0.174,0.016
-3.988,-0.166,0.016
-3.984,-0.158,0.016
-3.98,-0.146,0.008
-3.976,-0.142,0.008
-3.972,-0.134,0.008
-3.968,-0.126,0.008
-3.964,-0.118,0
-3.96,-0.11,0
-3.956,-0.098,0
-3.952,-0.094,0
-3.948,-0.082,0
-3.944,-0.078,-0.008
-3.94,-0.07,-0.008
-3.936,-0.058,-0.008
-3.932,-0.05,-0.008
-3.928,-0.042,-0.008
-3.924,-0.038,-0.016
-3.92,-0.026,-0.016
-3.916,-0.018,-0.016
-3.912,-0.006,-0.016
-3.908,-0.002,-0.016
-3.904,0.014,-0.024
-3.9,0.018,-0.024
-3.896,0.022,-0.024
-3.892,0.034,-0.032
-3.888,0.042,-0.032
-3.884,0.054,-0.024
-3.88,0.062,-0.032
-3.876,0.066,-0.032
-3.872,0.078,-0.04
-3.868,0.082,-0.032
-3.864,0.09,-0.04
-3.86,0.098,-0.032
-3.856,0.106,-0.032
-3.852,0.114,-0.04
-3.848,0.122,-0.04
-3.844,0.13,-0.04
-3.84,0.138,-0.048
-3.836,0.146,-0.04
-3.832,0.154,-0.048
-3.828,0.162,-0.048
-3.824,0.17,-0.048
-3.82,0.178,-0.056
-3.816,0.182,-0.048
-3.812,0.194,-0.048
-3.808,0.194,-0.048
-3.804,0.202,-0.056
-3.8,0.21,-0.064
-3.796,0.214,-0.056
-3.792,0.218,-0.056
-3.788,0.226,-0.064
-3.784,0.234,-0.064
-3.78,0.242,-0.064
-3.776,0.246,-0.064
-3.772,0.25,-0.064
-3.768,0.254,-0.072
-3.764,0.258,-0.072
-3.76,0.262,-0.072
-3.756,0.266,-0.072
-3.752,0.274,-0.072
-3.748,0.278,-0.08000001
-3.744,0.278,-0.072
-3.74,0.286,-0.072
-3.736,0.29,-0.08000001
-3.732,0.294,-0.08000001
-3.728,0.294,-0.08800001
-3.724,0.298,-0.08800001
-3.72,0.302,-0.08800001
-3.716,0.306,-0.096
-3.712,0.306,-0.08800001
-3.708,0.31,-0.08800001
-3.704,0.31,-0.08800001
-3.7,0.314,-0.096
-3.696,0.314,-0.096
-3.692,0.322,-0.096
-3.688,0.318,-0.104
-3.684,0.322,-0.104
-3.68,0.322,-0.104
-3.676,0.322,-0.096
-3.672,0.322,-0.104
-3.668,0.322,-0.104
-3.664,0.322,-0.112
-3.66,0.322,-0.112
-3.656,0.322,-0.112
-3.652,0.322,-0.112
-3.648,0.322,-0.112
-3.644,0.322,-0.112
-3.64,0.322,-0.112
-3.636,0.322,-0.112
-3.632,0.318,-0.112
-3.628,0.314,-0.12
-3.624,0.314,-0.12
-3.62,0.314,-0.12
-3.616,0.314,-0.12
-3.612,0.31,-0.112
-3.608,0.31,-0.128
-3.604,0.306,-0.128
-3.6,0.302,-0.12
-3.596,0.302,-0.128
-3.592,0.298,-0.128
-3.588,0.294,-0.128
-3.584,0.286,-0.136
-3.58,0.286,-0.128
-3.576,0.286,-0.136
-3.572,0.278,-0.128
-3.568,0.274,-0.128
-3.564,0.27,-0.128
-3.56,0.266,-0.128
-3.556,0.262,-0.128
-3.552,0.258,-0.128
-3.548,0.254,-0.128
-3.544,0.25,-0.128
-3.54,0.246,-0.128
-3.536,0.238,-0.136
-3.532,0.23,-0.136
-3.528,0.226,-0.128
-3.524,0.222,-0.136
-3.52,0.214,-0.136
-3.516,0.206,-0.128
-3.512,0.202,-0.128
-3.508,0.198,-0.136
-3.504,0.19,-0.128
-3.5,0.182,-0.128
-3.496,0.178,-0.128
-3.492,0.174,-0.128
-3.488,0.166,-0.128
-3.484,0.158,-0.128
-3.48,0.15,-0.128
-3.476,0.142,-0.128
-3.472,0.134,-0.128
-3.468,0.126,-0.128
-3.464,0.122,-0.128
-3.46,0.114,-0.128
-3.456,0.102,-0.128
-3.452,0.098,-0.128
-3.448,0.09,-0.128
-3.444,0.082,-0.128
-3.44,0.074,-0.12
-3.436,0.07,-0.12
-3.432,0.058,-0.112
-3.428,0.054,-0.12
-3.424,0.046,-0.12
-3.42,0.038,-0.12
-3.416,0.026,-0.112
-3.412,0.022,-0.12
-3.408,0.014,-0.104
-3.404,0.006,-0.112
-3.4,-0.002,-0.112
-3.396,-0.01,-0.112
-3.392,-0.022,-0.104
-3.388,-0.03,-0.104
-3.384,-0.034,-0.104
-3.38,-0.042,-0.104
-3.376,-0.05,-0.104
-3.372,-0.058,-0.096
-3.368,-0.066,-0.096
-3.364,-0.074,-0.096
-3.36,-0.082,-0.08800001
-3.356,-0.09,-0.08800001
-3.352,-0.098,-0.08000001
-3.348,-0.106,-0.08800001
-3.344,-0.11,-0.08000001
-3.34,-0.122,-0.08000001
-3.336,-0.13,-0.072
-3.332,-0.134,-0.072
-3.328,-0.142,-0.072
-3.324,-0.15,-0.064
-3.32,-0.162,-0.056
-3.316,-0.166,-0.064
-3.312,-0.17,-0.056
-3.308,-0.178,-0.048
-3.304,-0.186,-0.048
-3.3,-0.186,-0.048
-3.296,-0.19,-0.04
-3.292,-0.202,-0.04
-3.288,-0.206,-0.032
-3.284,-0.21,-0.032
-3.28,-0.214,-0.032
-3.276,-0.222,-0.024
-3.272,-0.23,-0.024
-3.268,-0.234,-0.024
-3.264,-0.238,-0.016
-3.26,-0.242,-0.016
-3.256,-0.246,-0.008
-3.252,-0.25,-0.008
-3.248,-0.258,0
-3.244,-0.262,0
-3.24,-0.262,0.008
-3.236,-0.266,0.008
-3.232,-0.27,0.016
-3.228,-0.278,0.016
-3.224,-0.278,0.024
-3.22,-0.278,0.024
-3.216,-0.282,0.024
-3.212,-0.29,0.032
-3.208,-0.29,0.04
-3.204,-0.294,0.04
-3.2,-0.294,0.04
-3.196,-0.294,0.048
-3.192,-0.298,0.048
-3.188,-0.302,0.048
-3.184,-0.298,0.064
-3.18,-0.302,0.056
-3.176,-0.298,0.064
-3.172,-0.302,0.072
-3.168,-0.302,0.072
-3.164,-0.302,0.072
-3.16,-0.302,0.08000001
-3.156,-0.302,0.08000001
-3.152,-0.302,0.08800001
-3.148,-0.302,0.08800001
-3.144,-0.302,0.096
-3.14,-0.298,0.096
-3.136,-0.298,0.096
-3.132,-0.294,0.096
-3.128,-0.294,0.096
-3.124,-0.294,0.104
-3.12,-0.29,0.104
-3.116,-0.286,0.112
-3.112,-0.282,0.112
-3.108,-0.282,0.112
-3.104,-0.278,0.12
-3.1,-0.278,0.128
-3.096,-0.27,0.12
-3.092,-0.266,0.128
-3.088,-0.262,0.136
-3.084,-0.262,0.128
-3.08,-0.258,0.136
-3.076,-0.25,0.136
-3.072,-0.246,0.136
-3.068,-0.238,0.144
-3.064,-0.238,0.136
-3.06,-0.234,0.144
-3.056,-0.23,0.152
-3.052,-0.226,0.152
-3.048,-0.218,0.152
-3.044,-0.214,0.152
-3.04,-0.206,0.152
-3.036,-0.202,0.152
-3.032,-0.194,0.152
-3.028,-0.19,0.152
-3.024,-0.186,0.16
-3.02,-0.186,0.16
-3.016,-0.178,0.16
-3.012,-0.174,0.168
-3.008,-0.17,0.168
-3.004,-0.162,0.16
-3,-0.154,0.168
-2.996,-0.15,0.168
-2.992,-0.142,0.168
-2.988,-0.134,0.16
-2.984,-0.13,0.16
-2.98,-0.122,0.168
-2.976,-0.114,0.16
-2.972,-0.106,0.16
-2.968,-0.102,0.176
-2.964,-0.098,0.168
-2.96,-0.086,0.168
-2.956,-0.078,0.168
-2.952,-0.07,0.168
-2.948,-0.062,0.168
-2.944,-0.058,0.168
-2.94,-0.05,0.168
-2.936,-0.042,0.16
-2.932,-0.038,0.168
-2.928,-0.026,0.168
-2.924,-0.022,0.152
-2.92,-0.018,0.16
-2.916,-0.006,0.16
-2.912,0.002,0.152
-2.908,0.006,0.152
-2.904,0.01,0.152
-2.9,0.018,0.152
-2.896,0.03,0.152
-2.892,0.034,0.144
-2.888,0.042,0.144
-2.884,0.046,0.136
-2.88,0.054,0.136
-2.876,0.062,0.144
-2.872,0.066,0.136
-2.868,0.07,0.136
-2.864,0.074,0.136
-2.86,0.078,0.136
-2.856,0.09,0.128
-2.852,0.094,0.128
-2.848,0.106,0.12
-2.844,0.106,0.12
-2.84,0.11,0.112
-2.836,0.118,0.112
-2.832,0.126,0.112
-2.828,0.13,0.112
-2.824,0.13,0.104
-2.82,0.142,0.104
-2.816,0.146,0.104
-2.812,0.15,0.096
-2.808,0.154,0.096
-2.804,0.162,0.08800001
-2.8,0.162,0.08800001
-2.796,0.174,0.08000001
-2.792,0.174,0.08000001
-2.788,0.178,0.08000001
-2.784,0.182,0.064
-2.78,0.186,0.064
-2.776,0.19,0.056
-2.772,0.194,0.048
-2.768,0.198,0.048
-2.764,0.202,0.048
-2.76,0.202,0.04
-2.756,0.206,0.032
-2.752,0.21,0.032
-2.748,0.214,0.024
-2.744,0.218,0.016
-2.74,0.218,0.016
-2.736,0.218,0.008
-2.732,0.222,0
-2.728,0.222,0
-2.724,0.226,-0.008
-2.72,0.226,-0.016
-2.716,0.23,-0.024
-2.712,0.234,-0.016
-2.708,0.234,-0.032
-2.704,0.238,-0.032
-2.7,0.238,-0.04
-2.696,0.234,-0.04
-2.692,0.238,-0.048
-2.688,0.238,-0.048
-2.684,0.238,-0.056
-2.68,0.238,-0.064
-2.676,0.242,-0.072
-2.672,0.242,-0.064
-2.668,0.238,-0.08000001
-2.664,0.242,-0.08000001
-2.66,0.238,-0.08800001
-2.656,0.238,-0.096
-2.652,0.238,-0.096
-2.648,0.23,-0.112
-2.644,0.234,-0.112
-2.64,0.238,-0.12
-2.636,0.234,-0.12
-2.632,0.234,-0.128
-2.628,0.23,-0.128
-2.624,0.226,-0.136
-2.62,0.23,-0.144
-2.616,0.226,-0.144
-2.612,0.222,-0.152
-2.608,0.218,-0.16
-2.604,0.218,-0.16
-2.6,0.214,-0.168
-2.596,0.218,-0.168
-2.592,0.21,-0.176
-2.588,0.206,-0.168
-2.584,0.206,-0.176
-2.58,0.202,-0.184
-2.576,0.198,-0.184
-2.572,0.194,-0.2
-2.568,0.194,-0.192
-2.564,0.19,-0.2
-2.56,0.186,-0.2
-2.556,0.186,-0.208
-2.552,0.182,-0.216
-2.548,0.174,-0.216
-2.544,0.17,-0.216
-2.54,0.17,-0.224
-2.536,0.166,-0.224
-2.532,0.162,-0.224
-2.528,0.15,-0.232
-2.524,0.15,-0.24
-2.52,0.146,-0.24
-2.516,0.142,-0.232
-2.512,0.138,-0.24
-2.508,0.134,-0.248
-2.504,0.13,-0.248
-2.5,0.126,-0.248
-2.496,0.118,-0.248
-2.492,0.114,-0.248
-2.488,0.11,-0.256
-2.484,0.102,-0.256
-2.48,0.102,-0.256
-2.476,0.094,-0.256
-2.472,0.09,-0.256
-2.468,0.082,-0.264
-2.464,0.082,-0.256
-2.46,0.074,-0.256
-2.456,0.07,-0.256
-2.452,0.066,-0.264
-2.448,0.062,-0.264
-2.444,0.058,-0.264
-2.44,0.05,-0.256
-2.436,0.046,-0.256
-2.432,0.042,-0.264
-2.428,0.038,-0.264
-2.424,0.03,-0.256
-2.42,0.026,-0.256
-2.416,0.022,-0.256
-2.412,0.014,-0.256
-2.408,0.014,-0.256
-2.404,0.006,-0.248
-2.4,0.002,-0.256
-2.396,-0.002,-0.24
-2.392,-0.006,-0.248
-2.388,-0.01,-0.24
-2.384,-0.018,-0.24
-2.38,-0.022,-0.24
-2.376,-0.03,-0.24
-2.372,-0.034,-0.24
-2.368,-0.038,-0.232
-2.364,-0.042,-0.224
-2.36,-0.046,-0.224
-2.356,-0.05,-0.224
-2.352,-0.058,-0.224
-2.348,-0.062,-0.216
-2.344,-0.066,-0.216
-2.34,-0.066,-0.208
-2.336,-0.07,-0.208
-2.332,-0.078,-0.192
-2.328,-0.078,-0.192
-2.324,-0.082,-0.192
-2.32,-0.09,-0.184
-2.316,-0.086,-0.184
-2.312,-0.094,-0.184
-2.308,-0.098,-0.176
-2.304,-0.098,-0.168
-2.3,-0.102,-0.168
-2.296,-0.106,-0.16
-2.292,-0.106,-0.16
-2.288,-0.114,-0.144
-2.284,-0.118,-0.144
-2.28,-0.118,-0.144
-2.276,-0.122,-0.136
-2.272,-0.126,-0.128
-2.268,-0.13,-0.12
-2.264,-0.126,-0.112
-2.26,-0.13,-0.104
-2.256,-0.134,-0.096
-2.252,-0.138,-0.096
-2.248,-0.142,-0.096
-2.244,-0.146,-0.08000001
-2.24,-0.142,-0.072
-2.236,-0.146,-0.072
-2.232,-0.146,-0.064
-2.228,-0.146,-0.056
-2.224,-0.146,-0.048
-2.22,-0.15,-0.04
-2.216,-0.15,-0.032
-2.212,-0.15,-0.024
-2.208,-0.154,-0.024
-2.204,-0.15,-0.016
-2.2,-0.158,-0.008
-2.196,-0.158,0
-2.192,-0.158,0.008
-2.188,-0.158,0.016
-2.184,-0.154,0.024
-2.18,-0.158,0.032
-2.176,-0.154,0.04
-2.172,-0.158,0.04
-2.168,-0.158,0.048
-2.164,-0.154,0.048
-2.16,-0.154,0.064
-2.156,-0.154,0.072
-2.152,-0.154,0.08000001
-2.148,-0.15,0.08000001
-2.144,-0.15,0.08800001
-2.14,-0.15,0.096
-2.136,-0.146,0.096
-2.132,-0.146,0.104
-2.128,-0.142,0.104
-2.124,-0.142,0.12
-2.12,-0.142,0.128
-2.116,-0.142,0.136
-2.112,-0.138,0.136
-2.108,-0.138,0.144
-2.104,-0.134,0.152
-2.1,-0.134,0.152
-2.096,-0.13,0.16
-2.092,-0.13,0.16
-2.088,-0.126,0.176
-2.084,-0.122,0.176
-2.08,-0.126,0.176
-2.076,-0.118,0.184
-2.072,-0.122,0.192
-2.068,-0.118,0.192
-2.064,-0.11,0.2
-2.06,-0.11,0.2
-2.056,-0.11,0.208
-2.052,-0.106,0.216
-2.048,-0.106,0.216
-2.044,-0.098,0.224
-2.04,-0.094,0.224
-2.036,-0.094,0.232
-2.032,-0.094,0.232
-2.028,-0.09,0.224
-2.024,-0.086,0.24
-2.02,-0.086,0.24
-2.016,-0.074,0.248
-2.012,-0.078,0.248
-2.008,-0.074,0.248
-2.004,-0.07,0.248
-2,-0.07,0.248
-1.996,-0.066,0.248
-1.992,-0.062,0.256
-1.988,-0.058,0.256
-1.984,-0.058,0.256
-1.98,-0.05,0.264
-1.976,-0.05,0.264
-1.972,-0.05,0.264
-1.968,-0.046,0.272
-1.964,-0.042,0.272
-1.96,-0.038,0.264
-1.956,-0.038,0.264
-1.952,-0.034,0.272
-1.948,-0.03,0.272
-1.944,-0.03,0.272
-1.94,-0.022,0.272
-1.936,-0.018,0.264
-1.932,-0.018,0.272
-1.928,-0.014,0.272
-1.924,-0.014,0.264
-1.92,-0.006,0.264
-1.916,-0.01,0.264
-1.912,-0.002,0.264
-1.908,0.002,0.272
-1.904,0.002,0.264
-1.9,0.006,0.264
-1.896,0.006,0.256
-1.892,0.01,0.256
-1.888,0.014,0.256
-1.884,0.014,0.248
-1.88,0.018,0.256
-1.876,0.018,0.248
-1.872,0.026,0.248
-1.868,0.026,0.24
-1.864,0.03,0.24
-1.86,0.026,0.232
-1.856,0.026,0.24
-1.852,0.034,0.232
-1.848,0.034,0.232
-1.844,0.038,0.224
-1.84,0.038,0.224
-1.836,0.042,0.216
-1.832,0.042,0.216
-1.828,0.046,0.208
-1.824,0.046,0.2
-1.82,0.05,0.208
-1.816,0.05,0.2
-1.812,0.054,0.192
-1.808,0.05,0.184
-1.804,0.054,0.176
-1.8,0.054,0.176
-1.796,0.054,0.168
-1.792,0.058,0.168
-1.788,0.058,0.16
-1.784,0.058,0.152
-1.78,0.058,0.144
-1.776,0.058,0.144
-1.772,0.066,0.144
-1.768,0.066,0.136
-1.764,0.066,0.12
-1.76,0.066,0.112
-1.756,0.066,0.112
-1.752,0.066,0.104
-1.748,0.066,0.096
-1.744,0.07,0.096
-1.74,0.066,0.08800001
-1.736,0.07,0.08000001
-1.732,0.07,0.072
-1.728,0.07,0.064
-1.724,0.07,0.056
-1.72,0.066,0.056
-1.716,0.066,0.04
-1.712,0.07,0.032
-1.708,0.07,0.032
-1.704,0.066,0.024
-1.7,0.07,0.016
-1.696,0.066,0.008
-1.692,0.07,0
-1.688,0.07,-0.008
-1.684,0.07,-0.008
-1.68,0.066,-0.024
-1.676,0.07,-0.032
-1.672,0.066,-0.04
-1.668,0.066,-0.048
-1.664,0.066,-0.048
-1.66,0.066,-0.064
-1.656,0.066,-0.064
-1.652,0.066,-0.072
-1.648,0.066,-0.08800001
-1.644,0.066,-0.08800001
-1.64,0.062,-0.096
-1.636,0.062,-0.104
-1.632,0.062,-0.112
-1.628,0.062,-0.12
-1.624,0.062,-0.12
-1.62,0.058,-0.136
-1.616,0.058,-0.136
-1.612,0.062,-0.144
-1.608,0.058,-0.152
-1.604,0.058,-0.16
-1.6,0.058,-0.168
-1.596,0.054,-0.176
-1.592,0.054,-0.176
-1.588,0.054,-0.184
-1.584,0.05,-0.184
-1.58,0.05,-0.2
-1.576,0.054,-0.208
-1.572,0.046,-0.2
-1.568,0.046,-0.208
-1.564,0.046,-0.224
-1.56,0.046,-0.224
-1.556,0.046,-0.224
-1.552,0.046,-0.232
-1.548,0.046,-0.24
-1.544,0.042,-0.24
-1.54,0.042,-0.248
-1.536,0.042,-0.248
-1.532,0.042,-0.256
-1.528,0.038,-0.256
-1.524,0.038,-0.272
-1.52,0.042,-0.264
-1.516,0.034,-0.28
-1.512,0.038,-0.272
-1.508,0.034,-0.288
-1.504,0.034,-0.288
-1.5,0.034,-0.288
-1.496,0.034,-0.288
-1.492,0.034,-0.296
-1.488,0.03,-0.296
-1.484,0.03,-0.304
-1.48,0.034,-0.304
-1.476,0.03,-0.296
-1.472,0.026,-0.304
-1.468,0.03,-0.304
-1.464,0.03,-0.304
-1.46,0.03,-0.312
-1.456,0.026,-0.304
-1.452,0.026,-0.312
-1.448,0.026,-0.312
-1.444,0.026,-0.312
-1.44,0.026,-0.312
-1.436,0.022,-0.312
-1.432,0.022,-0.312
-1.428,0.022,-0.312
-1.424,0.026,-0.312
-1.42,0.026,-0.312
-1.416,0.026,-0.312
-1.412,0.022,-0.312
-1.408,0.022,-0.312
-1.404,0.022,-0.312
-1.4,0.022,-0.312
-1.396,0.022,-0.312
-1.392,0.018,-0.304
-1.388,0.026,-0.304
-1.384,0.026,-0.304
-1.38,0.022,-0.304
-1.376,0.022,-0.304
-1.372,0.022,-0.296
-1.368,0.022,-0.296
-1.364,0.022,-0.288
-1.36,0.022,-0.28
-1.356,0.022,-0.288
-1.352,0.022,-0.28
-1.348,0.026,-0.28
-1.344,0.022,-0.272
-1.34,0.026,-0.272
-1.336,0.026,-0.264
-1.332,0.026,-0.264
-1.328,0.026,-0.256
-1.324,0.026,-0.256
-1.32,0.026,-0.248
-1.316,0.026,-0.248
-1.312,0.022,-0.232
-1.308,0.03,-0.232
-1.304,0.026,-0.224
-1.3,0.03,-0.224
-1.296,0.03,-0.216
-1.292,0.03,-0.208
-1.288,0.026,-0.2
-1.284,0.03,-0.2
-1.28,0.034,-0.184
-1.276,0.03,-0.176
-1.272,0.03,-0.184
-1.268,0.03,-0.176
-1.264,0.03,-0.168
-1.26,0.034,-0.16
-1.256,0.034,-0.16
-1.252,0.038,-0.144
-1.248,0.034,-0.144
-1.244,0.034,-0.136
-1.24,0.034,-0.128
-1.236,0.038,-0.112
-1.232,0.038,-0.112
-1.228,0.038,-0.104
-1.224,0.038,-0.096
-1.22,0.038,-0.08800001
-1.216,0.042,-0.08000001
-1.212,0.042,-0.072
-1.208,0.042,-0.064
-1.204,0.042,-0.056
-1.2,0.046,-0.048
-1.196,0.042,-0.04
-1.192,0.042,-0.032
-1.188,0.042,-0.032
-1.184,0.046,-0.024
-1.18,0.046,-0.008
-1.176,0.05,0
-1.172,0.042,0.008
-1.168,0.046,0.008
-1.164,0.05,0.016
-1.16,0.046,0.024
-1.156,0.046,0.04
-1.152,0.05,0.04
-1.148,0.05,0.048
-1.144,0.05,0.056
-1.14,0.046,0.072
-1.136,0.046,0.072
-1.132,0.046,0.08000001
-1.128,0.05,0.08800001
-1.124,0.046,0.08800001
-1.12,0.046,0.104
-1.116,0.046,0.104
-1.112,0.046,0.112
-1.108,0.046,0.12
-1.104,0.042,0.128
-1.1,0.05,0.128
-1.096,0.046,0.136
-1.092,0.046,0.136
-1.088,0.042,0.152
-1.084,0.046,0.16
-1.08,0.046,0.16
-1.076,0.042,0.176
-1.072,0.046,0.168
-1.068,0.042,0.184
-1.064,0.038,0.184
-1.06,0.042,0.184
-1.056,0.042,0.192
-1.052,0.034,0.2
-1.048,0.038,0.208
-1.044,0.03,0.216
-1.04,0.034,0.216
-1.036,0.034,0.216
-1.032,0.034,0.224
-1.028,0.03,0.224
-1.024,0.034,0.232
-1.02,0.03,0.24
-1.016,0.03,0.24
-1.012,0.026,0.24
-1.008,0.026,0.24
-1.004,0.026,0.24
-1,0.022,0.248
-0.995999999999999,0.022,0.248
-0.992000000000001,0.022,0.256
-0.988,0.018,0.264
-0.983999999999998,0.018,0.256
-0.98,0.014,0.264
-0.975999999999999,0.014,0.264
-0.972000000000001,0.014,0.264
-0.968,0.006,0.264
-0.963999999999999,0.006,0.272
-0.960000000000001,0.002,0.272
-0.956,0.006,0.272
-0.951999999999998,-0.002,0.272
-0.948,0.002,0.28
-0.943999999999999,-0.002,0.272
-0.940000000000001,-0.006,0.28
-0.936,-0.006,0.28
-0.931999999999999,-0.014,0.272
-0.928000000000001,-0.014,0.272
-0.923999999999999,-0.014,0.28
-0.919999999999998,-0.018,0.272
-0.916,-0.018,0.272
-0.911999999999999,-0.022,0.272
-0.908000000000001,-0.022,0.272
-0.904,-0.026,0.272
-0.899999999999999,-0.026,0.28
-0.896000000000001,-0.03,0.272
-0.891999999999999,-0.034,0.272
-0.887999999999998,-0.038,0.272
-0.884,-0.038,0.264
-0.879999999999999,-0.042,0.264
-0.876000000000001,-0.042,0.264
-0.872,-0.046,0.256
-0.867999999999999,-0.05,0.256
-0.864000000000001,-0.05,0.256
-0.859999999999999,-0.05,0.256
-0.855999999999998,-0.058,0.256
-0.852,-0.058,0.24
-0.847999999999999,-0.058,0.248
-0.844000000000001,-0.062,0.232
-0.84,-0.062,0.24
-0.835999999999999,-0.066,0.24
-0.832000000000001,-0.07,0.232
-0.827999999999999,-0.074,0.224
-0.823999999999998,-0.074,0.224
-0.82,-0.078,0.224
-0.815999999999999,-0.082,0.208
-0.812000000000001,-0.082,0.208
-0.808,-0.082,0.208
-0.803999999999998,-0.086,0.208
-0.800000000000001,-0.086,0.2
-0.795999999999999,-0.09,0.2
-0.791999999999998,-0.094,0.192
-0.788,-0.098,0.184
-0.783999999999999,-0.098,0.176
-0.780000000000001,-0.098,0.168
-0.776,-0.106,0.168
-0.771999999999998,-0.102,0.16
-0.768000000000001,-0.106,0.152
-0.763999999999999,-0.106,0.152
-0.759999999999998,-0.106,0.144
-0.756,-0.11,0.144
-0.751999999999999,-0.114,0.136
-0.748000000000001,-0.114,0.128
-0.744,-0.114,0.12
-0.739999999999998,-0.114,0.112
-0.736000000000001,-0.122,0.104
-0.731999999999999,-0.118,0.104
-0.727999999999998,-0.122,0.104
-0.724,-0.122,0.08800001
-0.719999999999999,-0.122,0.08800001
-0.716000000000001,-0.126,0.08000001
-0.712,-0.126,0.072
-0.707999999999998,-0.126,0.064
-0.704000000000001,-0.13,0.056
-0.699999999999999,-0.13,0.048
-0.695999999999998,-0.13,0.048
-0.692,-0.126,0.04
-0.687999999999999,-0.13,0.032
-0.684000000000001,-0.134,0.024
-0.68,-0.13,0.016
-0.675999999999998,-0.134,0.016
-0.672000000000001,-0.13,0
-0.667999999999999,-0.134,-0.008
-0.663999999999998,-0.13,-0.016
-0.66,-0.13,-0.016
-0.655999999999999,-0.13,-0.024
-0.652000000000001,-0.13,-0.024
-0.648,-0.134,-0.032
-0.643999999999998,-0.134,-0.04
-0.640000000000001,-0.13,-0.048
-0.635999999999999,-0.13,-0.056
-0.631999999999998,-0.13,-0.064
-0.628,-0.13,-0.064
-0.623999999999999,-0.126,-0.072
-0.620000000000001,-0.126,-0.08800001
-0.616,-0.122,-0.08800001
-0.611999999999998,-0.122,-0.104
-0.608000000000001,-0.122,-0.104
-0.603999999999999,-0.122,-0.104
-0.599999999999998,-0.118,-0.112
-0.596,-0.114,-0.12
-0.591999999999999,-0.114,-0.128
-0.588000000000001,-0.114,-0.136
-0.584,-0.114,-0.144
-0.579999999999998,-0.106,-0.144
-0.576000000000001,-0.11,-0.144
-0.571999999999999,-0.102,-0.16
-0.567999999999998,-0.106,-0.168
-0.564,-0.102,-0.168
-0.559999999999999,-0.098,-0.168
-0.556000000000001,-0.098,-0.176
-0.552,-0.094,-0.184
-0.547999999999998,-0.086,-0.184
-0.544,-0.086,-0.192
-0.539999999999999,-0.082,-0.192
-0.536000000000001,-0.082,-0.2
-0.532,-0.078,-0.2
-0.527999999999999,-0.074,-0.208
-0.524000000000001,-0.07,-0.216
-0.52,-0.07,-0.208
-0.515999999999998,-0.066,-0.224
-0.512,-0.062,-0.224
-0.507999999999999,-0.054,-0.224
-0.504000000000001,-0.054,-0.224
-0.5,-0.054,-0.232
-0.495999999999999,-0.046,-0.232
-0.492000000000001,-0.042,-0.24
-0.488,-0.038,-0.24
-0.483999999999998,-0.03,-0.24
-0.48,-0.03,-0.248
-0.475999999999999,-0.026,-0.24
-0.472000000000001,-0.022,-0.248
-0.468,-0.018,-0.256
-0.463999999999999,-0.014,-0.256
-0.460000000000001,-0.01,-0.256
-0.456,-0.006,-0.256
-0.451999999999998,-0.002,-0.264
-0.448,0.006,-0.264
-0.443999999999999,0.01,-0.264
-0.440000000000001,0.014,-0.264
-0.436,0.018,-0.264
-0.431999999999999,0.022,-0.256
-0.428000000000001,0.03,-0.264
-0.423999999999999,0.03,-0.264
-0.419999999999998,0.038,-0.264
-0.416,0.038,-0.264
-0.411999999999999,0.046,-0.264
-0.408000000000001,0.054,-0.264
-0.404,0.054,-0.264
-0.399999999999999,0.058,-0.256
-0.396000000000001,0.066,-0.264
-0.391999999999999,0.07,-0.256
-0.387999999999998,0.07,-0.264
-0.384,0.074,-0.256
-0.379999999999999,0.078,-0.256
-0.376000000000001,0.082,-0.256
-0.372,0.09,-0.248
-0.367999999999999,0.09,-0.256
-0.364000000000001,0.094,-0.256
-0.359999999999999,0.102,-0.248
-0.355999999999998,0.102,-0.24
-0.352,0.11,-0.24
-0.347999999999999,0.114,-0.232
-0.344000000000001,0.118,-0.232
-0.34,0.122,-0.232
-0.335999999999999,0.13,-0.232
-0.332000000000001,0.13,-0.232
-0.327999999999999,0.13,-0.224
-0.323999999999998,0.142,-0.224
-0.32,0.142,-0.224
-0.315999999999999,0.146,-0.216
-0.312000000000001,0.15,-0.216
-0.308,0.154,-0.208
-0.303999999999998,0.158,-0.2
-0.300000000000001,0.162,-0.2
-0.295999999999999,0.166,-0.192
-0.291999999999998,0.17,-0.184
-0.288,0.17,-0.184
-0.283999999999999,0.17,-0.184
-0.280000000000001,0.174,-0.184
-0.276,0.178,-0.176
-0.271999999999998,0.182,-0.168
-0.268000000000001,0.186,-0.168
-0.263999999999999,0.19,-0.16
-0.259999999999998,0.19,-0.16
-0.256,0.194,-0.152
-0.251999999999999,0.194,-0.152
-0.248000000000001,0.198,-0.152
-0.244,0.198,-0.136
-0.239999999999998,0.202,-0.128
-0.236000000000001,0.202,-0.128
-0.231999999999999,0.206,-0.112
-0.227999999999998,0.21,-0.12
-0.224,0.206,-0.112
-0.219999999999999,0.21,-0.104
-0.216000000000001,0.21,-0.104
-0.212,0.21,-0.096
-0.207999999999998,0.214,-0.08800001
-0.204000000000001,0.214,-0.08000001
-0.199999999999999,0.214,-0.08000001
-0.195999999999998,0.218,-0.072
-0.192,0.214,-0.072
-0.187999999999999,0.214,-0.056
-0.184000000000001,0.218,-0.048
-0.18,0.218,-0.04
-0.175999999999998,0.214,-0.04
-0.172000000000001,0.214,-0.024
-0.167999999999999,0.214,-0.032
-0.163999999999998,0.218,-0.024
-0.16,0.214,-0.016
-0.155999999999999,0.214,-0.008
-0.152000000000001,0.214,0
-0.148,0.21,0
-0.143999999999998,0.214,0.008
-0.140000000000001,0.21,0.016
-0.135999999999999,0.21,0.024
-0.131999999999998,0.21,0.024
-0.128,0.206,0.032
-0.123999999999999,0.206,0.04
-0.120000000000001,0.202,0.04
-0.116,0.198,0.048
-0.111999999999998,0.198,0.048
-0.108000000000001,0.194,0.064
-0.103999999999999,0.194,0.064
-0.0999999999999979,0.194,0.064
-0.0960000000000001,0.186,0.08000001
-0.0919999999999987,0.186,0.072
-0.088000000000001,0.182,0.08000001
-0.0839999999999996,0.178,0.08000001
-0.0799999999999983,0.178,0.08800001
-0.0760000000000005,0.174,0.096
-0.0719999999999992,0.17,0.096
-0.0679999999999978,0.166,0.096
-0.0640000000000001,0.162,0.104
-0.0599999999999987,0.158,0.104
-0.0560000000000009,0.154,0.112
-0.0519999999999996,0.154,0.112
-0.0479999999999983,0.146,0.128
-0.0440000000000005,0.146,0.12
-0.0399999999999991,0.138,0.128
-0.0359999999999978,0.134,0.136
-0.032,0.13,0.136
-0.0279999999999987,0.122,0.136
-0.0240000000000009,0.122,0.144
-0.0199999999999996,0.114,0.152
-0.0159999999999982,0.106,0.144
-0.0120000000000005,0.102,0.152
-0.00799999999999912,0.098,0.152
-0.00400000000000134,0.094,0.16
0,0.09,0.16
0.00400000000000134,0.082,0.16
0.00799999999999912,0.078,0.168
0.0120000000000005,0.074,0.168
0.0160000000000018,0.07,0.16
0.0199999999999996,0.062,0.176
0.0240000000000009,0.058,0.176
0.0279999999999987,0.05,0.176
0.032,0.042,0.176
0.0360000000000014,0.038,0.176
0.0399999999999991,0.03,0.184
0.0440000000000005,0.026,0.184
0.0480000000000018,0.022,0.176
0.0519999999999996,0.014,0.184
0.0560000000000009,0.01,0.184
0.0599999999999987,-0.002,0.192
0.0640000000000001,-0.002,0.184
0.0680000000000014,-0.014,0.192
0.0719999999999992,-0.018,0.192
0.0760000000000005,-0.026,0.192
0.0800000000000018,-0.03,0.184
0.0839999999999996,-0.038,0.192
0.088000000000001,-0.046,0.192
0.0919999999999987,-0.058,0.192
0.0960000000000001,-0.058,0.192
0.100000000000001,-0.066,0.192
0.103999999999999,-0.07,0.184
0.108000000000001,-0.078,0.184
0.112000000000002,-0.082,0.184
0.116,-0.09,0.184
0.120000000000001,-0.094,0.184
0.123999999999999,-0.106,0.176
0.128,-0.11,0.184
0.132000000000001,-0.118,0.184
0.135999999999999,-0.122,0.168
0.140000000000001,-0.13,0.168
0.144000000000002,-0.134,0.176
0.148,-0.138,0.176
0.152000000000001,-0.146,0.176
0.155999999999999,-0.154,0.168
0.16,-0.158,0.168
0.164000000000001,-0.162,0.168
0.167999999999999,-0.17,0.16
0.172000000000001,-0.174,0.16
0.176000000000002,-0.178,0.16
0.18,-0.186,0.16
0.184000000000001,-0.19,0.152
0.187999999999999,-0.19,0.152
0.192,-0.198,0.152
0.196000000000002,-0.202,0.152
0.199999999999999,-0.21,0.144
0.204000000000001,-0.21,0.144
0.208000000000002,-0.214,0.136
0.212,-0.222,0.136
0.216000000000001,-0.226,0.136
0.219999999999999,-0.23,0.136
0.224,-0.234,0.128
0.228000000000002,-0.238,0.128
0.231999999999999,-0.242,0.12
0.236000000000001,-0.246,0.12
0.240000000000002,-0.25,0.112
0.244,-0.25,0.112
0.248000000000001,-0.258,0.112
0.251999999999999,-0.258,0.104
0.256,-0.262,0.104
0.260000000000002,-0.262,0.096
0.263999999999999,-0.27,0.096
0.268000000000001,-0.27,0.096
0.272000000000002,-0.27,0.08800001
0.276,-0.274,0.096
0.280000000000001,-0.278,0.08800001
0.283999999999999,-0.278,0.08000001
0.288,-0.278,0.08800001
0.292000000000002,-0.282,0.072
0.295999999999999,-0.278,0.072
0.300000000000001,-0.282,0.072
0.304000000000002,-0.282,0.072
0.308,-0.282,0.064
0.312000000000001,-0.282,0.056
0.315999999999999,-0.282,0.048
0.32,-0.282,0.048
0.324000000000002,-0.282,0.048
0.327999999999999,-0.282,0.04
0.332000000000001,-0.278,0.032
0.336000000000002,-0.282,0.032
0.34,-0.278,0.032
0.344000000000001,-0.278,0.024
0.347999999999999,-0.274,0.024
0.352,-0.274,0.008
0.356000000000002,-0.274,0.008
0.359999999999999,-0.27,0.008
0.364000000000001,-0.266,0.008
0.368000000000002,-0.262,0
0.372,-0.262,0
0.376000000000001,-0.258,-0.008
0.379999999999999,-0.258,-0.008
0.384,-0.254,-0.016
0.388000000000002,-0.254,-0.016
0.391999999999999,-0.242,-0.016
0.396000000000001,-0.242,-0.024
0.400000000000002,-0.242,-0.024
0.404,-0.238,-0.024
0.408000000000001,-0.23,-0.032
0.411999999999999,-0.23,-0.04
0.416,-0.222,-0.04
0.420000000000002,-0.218,-0.048
0.423999999999999,-0.214,-0.048
0.428000000000001,-0.206,-0.048
0.432000000000002,-0.202,-0.048
0.436,-0.198,-0.056
0.440000000000001,-0.19,-0.056
0.443999999999999,-0.19,-0.072
0.448,-0.182,-0.064
0.452000000000002,-0.178,-0.072
0.456,-0.17,-0.08000001
0.460000000000001,-0.166,-0.072
0.464000000000002,-0.162,-0.072
0.468,-0.154,-0.08000001
0.472000000000001,-0.142,-0.08000001
0.475999999999999,-0.138,-0.08800001
0.48,-0.134,-0.096
0.484000000000002,-0.126,-0.08800001
0.488,-0.122,-0.096
0.492000000000001,-0.114,-0.096
0.495999999999999,-0.106,-0.096
0.5,-0.098,-0.096
0.504000000000001,-0.09,-0.104
0.507999999999999,-0.082,-0.112
0.512,-0.074,-0.112
0.516000000000002,-0.066,-0.104
0.52,-0.058,-0.104
0.524000000000001,-0.054,-0.112
0.527999999999999,-0.046,-0.12
0.532,-0.038,-0.112
0.536000000000001,-0.03,-0.112
0.539999999999999,-0.026,-0.12
0.544,-0.014,-0.12
0.548000000000002,-0.006,-0.12
0.552,0.002,-0.12
0.556000000000001,0.006,-0.128
0.559999999999999,0.018,-0.128
0.564,0.022,-0.128
0.568000000000001,0.03,-0.128
0.571999999999999,0.038,-0.128
0.576000000000001,0.05,-0.136
0.580000000000002,0.054,-0.128
0.584,0.058,-0.128
0.588000000000001,0.066,-0.128
0.591999999999999,0.074,-0.128
0.596,0.082,-0.128
0.600000000000001,0.09,-0.128
0.603999999999999,0.094,-0.136
0.608000000000001,0.102,-0.136
0.612000000000002,0.106,-0.128
0.616,0.118,-0.128
0.620000000000001,0.122,-0.136
0.623999999999999,0.13,-0.128
0.628,0.138,-0.136
0.632000000000001,0.146,-0.136
0.635999999999999,0.154,-0.128
0.640000000000001,0.158,-0.128
0.644000000000002,0.17,-0.136
0.648,0.17,-0.128
0.652000000000001,0.182,-0.136
0.655999999999999,0.186,-0.136
0.66,0.194,-0.128
0.664000000000001,0.198,-0.12
0.667999999999999,0.202,-0.128
0.672000000000001,0.206,-0.128
0.676000000000002,0.214,-0.12
0.68,0.218,-0.128
0.684000000000001,0.226,-0.128
0.687999999999999,0.23,-0.12
0.692,0.242,-0.128
0.696000000000002,0.238,-0.12
0.699999999999999,0.246,-0.12
0.704000000000001,0.246,-0.12
0.708000000000002,0.254,-0.12
0.712,0.258,-0.112
0.716000000000001,0.262,-0.112
0.719999999999999,0.262,-0.112
0.724,0.274,-0.12
0.728000000000002,0.274,-0.104
0.731999999999999,0.274,-0.112
0.736000000000001,0.282,-0.104
0.740000000000002,0.282,-0.104
0.744,0.286,-0.104
0.748000000000001,0.286,-0.104
0.751999999999999,0.294,-0.104
0.756,0.294,-0.104
0.760000000000002,0.298,-0.096
0.763999999999999,0.298,-0.096
0.768000000000001,0.298,-0.096
0.772000000000002,0.302,-0.08800001
0.776,0.302,-0.096
0.780000000000001,0.306,-0.096
0.783999999999999,0.306,-0.08800001
0.788,0.306,-0.08800001
0.792000000000002,0.306,-0.08800001
0.795999999999999,0.31,-0.08800001
0.800000000000001,0.306,-0.072
0.804000000000002,0.306,-0.08000001
0.808,0.31,-0.072
0.812000000000001,0.31,-0.072
0.815999999999999,0.302,-0.08000001
0.82,0.306,-0.072
0.824000000000002,0.306,-0.072
0.827999999999999,0.306,-0.072
0.832000000000001,0.306,-0.056
0.836000000000002,0.302,-0.072
0.84,0.302,-0.064
0.844000000000001,0.302,-0.056
0.847999999999999,0.298,-0.048
0.852,0.298,-0.056
0.856000000000002,0.294,-0.048
0.859999999999999,0.294,-0.048
0.864000000000001,0.29,-0.048
0.868000000000002,0.286,-0.048
0.872,0.286,-0.04
0.876000000000001,0.282,-0.04
0.879999999999999,0.282,-0.04
0.884,0.27,-0.048
0.888000000000002,0.27,-0.04
0.891999999999999,0.27,-0.032
0.896000000000001,0.266,-0.032
0.900000000000002,0.262,-0.04
0.904,0.258,-0.032
0.908000000000001,0.25,-0.024
0.911999999999999,0.246,-0.032
0.916,0.242,-0.016
0.920000000000002,0.238,-0.024
0.923999999999999,0.234,-0.024
0.928000000000001,0.226,-0.016
0.932000000000002,0.222,-0.016
0.936,0.214,-0.016
0.940000000000001,0.214,-0.016
0.943999999999999,0.206,-0.008
0.948,0.202,0
0.952000000000002,0.198,-0.008
0.956,0.19,-0.008
0.960000000000001,0.182,-0.008
0.964000000000002,0.174,0
0.968,0.17,0
0.972000000000001,0.166,-0.008
0.975999999999999,0.158,-0.008
0.98,0.15,0.008
0.984000000000002,0.142,0.008
0.988,0.138,0.016
0.992000000000001,0.126,0.008
0.995999999999999,0.122,0.016
1,0.11,0.016
1.004,0.106,0.008
1.008,0.102,0.016
1.012,0.094,0.024
1.016,0.082,0.016
1.02,0.078,0.016
1.024,0.07,0.024
1.028,0.066,0.024
1.032,0.058,0.024
1.036,0.05,0.024
1.04,0.038,0.024
1.044,0.03,0.032
1.048,0.022,0.032
1.052,0.018,0.032
1.056,0.002,0.032
1.06,-0.002,0.032
1.064,-0.01,0.024
1.068,-0.018,0.032
1.072,-0.026,0.032
1.076,-0.034,0.04
1.08,-0.046,0.04
1.084,-0.054,0.04
1.088,-0.058,0.032
1.092,-0.066,0.04
1.096,-0.074,0.04
1.1,-0.086,0.04
1.104,-0.09,0.04
1.108,-0.102,0.04
1.112,-0.106,0.04
1.116,-0.118,0.04
1.12,-0.126,0.04
1.124,-0.13,0.04
1.128,-0.138,0.048
1.132,-0.146,0.048
1.136,-0.154,0.048
1.14,-0.162,0.048
1.144,-0.17,0.048
1.148,-0.178,0.048
1.152,-0.182,0.056
1.156,-0.19,0.056
1.16,-0.19,0.048
1.164,-0.198,0.056
1.168,-0.206,0.056
1.172,-0.214,0.048
1.176,-0.218,0.048
1.18,-0.226,0.056
1.184,-0.23,0.056
1.188,-0.238,0.056
1.192,-0.242,0.048
1.196,-0.246,0.056
1.2,-0.254,0.056
1.204,-0.258,0.048
1.208,-0.262,0.056
1.212,-0.27,0.064
1.216,-0.274,0.056
1.22,-0.278,0.064
1.224,-0.282,0.064
1.228,-0.286,0.056
1.232,-0.29,0.056
1.236,-0.298,0.064
1.24,-0.298,0.064
1.244,-0.302,0.064
1.248,-0.306,0.064
1.252,-0.306,0.072
1.256,-0.314,0.064
1.26,-0.314,0.064
1.264,-0.318,0.064
1.268,-0.318,0.072
1.272,-0.318,0.072
1.276,-0.318,0.072
1.28,-0.326,0.064
1.284,-0.326,0.072
1.288,-0.322,0.072
1.292,-0.326,0.072
1.296,-0.326,0.064
1.3,-0.326,0.072
1.304,-0.326,0.072
1.308,-0.326,0.072
1.312,-0.326,0.072
1.316,-0.326,0.08000001
1.32,-0.322,0.072
1.324,-0.322,0.072
1.328,-0.322,0.072
1.332,-0.322,0.072
1.336,-0.318,0.072
1.34,-0.318,0.072
1.344,-0.314,0.072
1.348,-0.314,0.072
1.352,-0.31,0.072
1.356,-0.306,0.08000001
1.36,-0.302,0.072
1.364,-0.302,0.072
1.368,-0.294,0.08000001
1.372,-0.29,0.08000001
1.376,-0.29,0.072
1.38,-0.29,0.072
1.384,-0.282,0.08000001
1.388,-0.278,0.072
1.392,-0.274,0.072
1.396,-0.27,0.072
1.4,-0.262,0.072
1.404,-0.254,0.08000001
1.408,-0.25,0.072
1.412,-0.246,0.08000001
1.416,-0.242,0.08000001
1.42,-0.234,0.072
1.424,-0.23,0.08000001
1.428,-0.226,0.08000001
1.432,-0.218,0.08000001
1.436,-0.21,0.072
1.44,-0.206,0.072
1.444,-0.198,0.08000001
1.448,-0.194,0.08000001
1.452,-0.186,0.072
1.456,-0.182,0.072
1.46,-0.178,0.08000001
1.464,-0.166,0.08000001
1.468,-0.162,0.072
1.472,-0.154,0.072
1.476,-0.146,0.08000001
1.48,-0.138,0.072
1.484,-0.126,0.072
1.488,-0.122,0.072
1.492,-0.114,0.072
1.496,-0.106,0.064
1.5,-0.098,0.072
1.504,-0.09,0.064
1.508,-0.082,0.064
1.512,-0.074,0.064
1.516,-0.062,0.072
1.52,-0.058,0.064
1.524,-0.054,0.064
1.528,-0.046,0.064
1.532,-0.034,0.064
1.536,-0.026,0.064
1.54,-0.018,0.064
1.544,-0.01,0.064
1.548,-0.006,0.064
1.552,0.006,0.056
1.556,0.018,0.056
1.56,0.022,0.048
1.564,0.03,0.056
1.568,0.038,0.056
1.572,0.046,0.048
1.576,0.054,0.048
1.58,0.062,0.048
1.584,0.07,0.048
1.588,0.074,0.048
1.592,0.082,0.04
1.596,0.086,0.04
1.6,0.098,0.048
1.604,0.102,0.04
1.608,0.11,0.04
1.612,0.122,0.032
1.616,0.126,0.024
1.62,0.13,0.032
1.624,0.142,0.024
1.628,0.15,0.032
1.632,0.154,0.024
1.636,0.158,0.024
1.64,0.166,0.016
1.644,0.17,0.024
1.648,0.178,0.016
1.652,0.186,0.008
1.656,0.19,0.016
1.66,0.198,0.008
1.664,0.202,0.008
1.668,0.206,0.008
1.672,0.21,0.008
1.676,0.218,-0.008
1.68,0.222,0
1.684,0.23,0
1.688,0.234,-0.008
1.692,0.238,-0.008
1.696,0.242,-0.016
1.7,0.246,-0.008
1.704,0.246,-0.016
1.708,0.25,-0.016
1.712,0.258,-0.016
1.716,0.262,-0.024
1.72,0.266,-0.024
1.724,0.266,-0.024
1.728,0.27,-0.024
1.732,0.27,-0.032
1.736,0.278,-0.04
1.74,0.282,-0.032
1.744,0.282,-0.032
1.748,0.282,-0.04
1.752,0.282,-0.048
1.756,0.286,-0.048
1.76,0.29,-0.048
1.764,0.286,-0.048
1.768,0.29,-0.056
1.772,0.294,-0.056
1.776,0.294,-0.064
1.78,0.294,-0.064
1.784,0.298,-0.072
1.788,0.294,-0.072
1.792,0.294,-0.072
1.796,0.294,-0.072
1.8,0.294,-0.072
1.804,0.29,-0.08000001
1.808,0.294,-0.072
1.812,0.29,-0.08000001
1.816,0.294,-0.08800001
1.82,0.294,-0.08800001
1.824,0.29,-0.096
1.828,0.286,-0.096
1.832,0.286,-0.08800001
1.836,0.286,-0.096
1.84,0.286,-0.096
1.844,0.278,-0.104
1.848,0.278,-0.104
1.852,0.278,-0.104
1.856,0.274,-0.112
1.86,0.274,-0.104
1.864,0.27,-0.112
1.868,0.266,-0.112
1.872,0.262,-0.112
1.876,0.258,-0.12
1.88,0.258,-0.128
1.884,0.254,-0.12
1.888,0.25,-0.128
1.892,0.246,-0.136
1.896,0.242,-0.12
1.9,0.238,-0.128
1.904,0.234,-0.128
1.908,0.234,-0.136
1.912,0.226,-0.136
1.916,0.222,-0.136
1.92,0.21,-0.136
1.924,0.21,-0.144
1.928,0.206,-0.136
1.932,0.198,-0.144
1.936,0.198,-0.144
1.94,0.194,-0.136
1.944,0.182,-0.144
1.948,0.178,-0.136
1.952,0.174,-0.152
1.956,0.166,-0.144
1.96,0.162,-0.144
1.964,0.154,-0.152
1.968,0.15,-0.152
1.972,0.142,-0.144
1.976,0.134,-0.152
1.98,0.13,-0.152
1.984,0.126,-0.152
1.988,0.118,-0.144
1.992,0.114,-0.152
1.996,0.102,-0.152
2,0.098,-0.152
2.004,0.086,-0.152
2.008,0.086,-0.144
2.012,0.078,-0.144
2.016,0.07,-0.144
2.02,0.066,-0.152
2.024,0.058,-0.152
2.028,0.05,-0.152
2.032,0.046,-0.144
2.036,0.038,-0.152
2.04,0.034,-0.144
2.044,0.022,-0.144
2.048,0.014,-0.144
2.052,0.01,-0.144
2.056,0.006,-0.136
2.06,-0.006,-0.136
2.064,-0.01,-0.144
2.068,-0.014,-0.144
2.072,-0.026,-0.136
2.076,-0.034,-0.128
2.08,-0.042,-0.136
2.084,-0.046,-0.128
2.088,-0.054,-0.128
2.092,-0.062,-0.128
2.096,-0.066,-0.128
2.1,-0.07,-0.128
2.104,-0.074,-0.12
2.108,-0.082,-0.12
2.112,-0.086,-0.112
2.116,-0.098,-0.112
2.12,-0.102,-0.112
2.124,-0.106,-0.112
2.128,-0.114,-0.096
2.132,-0.122,-0.104
2.136,-0.13,-0.104
2.14,-0.134,-0.096
2.144,-0.142,-0.08800001
2.148,-0.146,-0.08800001
2.152,-0.15,-0.08800001
2.156,-0.154,-0.08800001
2.16,-0.162,-0.08000001
2.164,-0.166,-0.08000001
2.168,-0.174,-0.08000001
2.172,-0.178,-0.064
2.176,-0.178,-0.072
2.18,-0.186,-0.064
2.184,-0.186,-0.064
2.188,-0.19,-0.056
2.192,-0.194,-0.056
2.196,-0.198,-0.048
2.2,-0.202,-0.048
2.204,-0.206,-0.04
2.208,-0.21,-0.032
2.212,-0.214,-0.032
2.216,-0.214,-0.032
2.22,-0.222,-0.024
2.224,-0.218,-0.024
2.228,-0.222,-0.024
2.232,-0.226,-0.016
2.236,-0.23,-0.008
2.24,-0.23,-0.008
2.244,-0.238,0
2.248,-0.238,0.008
2.252,-0.238,0.008
2.256,-0.238,0.008
2.26,-0.242,0.016
2.264,-0.242,0.024
2.268,-0.242,0.024
2.272,-0.242,0.032
2.276,-0.246,0.032
2.28,-0.246,0.04
2.284,-0.246,0.04
2.288,-0.242,0.048
2.292,-0.246,0.056
2.296,-0.25,0.064
2.3,-0.246,0.056
2.304,-0.242,0.064
2.308,-0.242,0.072
2.312,-0.246,0.072
2.316,-0.246,0.072
2.32,-0.242,0.08000001
2.324,-0.238,0.08800001
2.328,-0.238,0.08800001
2.332,-0.238,0.096
2.336,-0.234,0.096
2.34,-0.234,0.104
2.344,-0.23,0.104
2.348,-0.23,0.112
2.352,-0.226,0.12
2.356,-0.226,0.12
2.36,-0.218,0.12
2.364,-0.218,0.128
2.368,-0.214,0.128
2.372,-0.214,0.136
2.376,-0.206,0.136
2.38,-0.206,0.136
2.384,-0.202,0.152
2.388,-0.198,0.152
2.392,-0.194,0.144
2.396,-0.19,0.152
2.4,-0.186,0.152
2.404,-0.186,0.16
2.408,-0.182,0.16
2.412,-0.182,0.16
2.416,-0.174,0.16
2.42,-0.17,0.168
2.424,-0.162,0.176
2.428,-0.158,0.176
2.432,-0.154,0.176
2.436,-0.15,0.184
2.44,-0.142,0.176
2.444,-0.138,0.184
2.448,-0.138,0.184
2.452,-0.13,0.184
2.456,-0.126,0.192
2.46,-0.118,0.192
2.464,-0.114,0.192
2.468,-0.106,0.184
2.472,-0.102,0.192
2.476,-0.098,0.192
2.48,-0.094,0.2
2.484,-0.086,0.2
2.488,-0.082,0.2
2.492,-0.074,0.208
2.496,-0.07,0.208
2.5,-0.066,0.208
2.504,-0.062,0.208
2.508,-0.058,0.2
2.512,-0.05,0.2
2.516,-0.046,0.2
2.52,-0.038,0.2
2.524,-0.034,0.208
2.528,-0.03,0.208
2.532,-0.018,0.208
2.536,-0.014,0.208
2.54,-0.01,0.2
2.544,-0.006,0.2
2.548,0.002,0.2
2.552,0.006,0.2
2.556,0.014,0.2
2.56,0.018,0.192
2.564,0.022,0.192
2.568,0.026,0.2
2.572,0.034,0.192
2.576,0.038,0.192
2.58,0.046,0.192
2.584,0.05,0.184
2.588,0.05,0.184
2.592,0.058,0.176
2.596,0.062,0.176
2.6,0.066,0.184
2.604,0.07,0.168
2.608,0.074,0.176
2.612,0.078,0.168
2.616,0.082,0.168
2.62,0.09,0.16
2.624,0.09,0.16
2.628,0.098,0.152
2.632,0.102,0.152
2.636,0.102,0.144
2.64,0.106,0.152
2.644,0.114,0.136
2.648,0.114,0.136
2.652,0.118,0.128
2.656,0.122,0.136
2.66,0.126,0.12
2.664,0.13,0.12
2.668,0.13,0.112
2.672,0.138,0.112
2.676,0.138,0.112
2.68,0.142,0.104
2.684,0.146,0.096
2.688,0.15,0.096
2.692,0.15,0.08800001
2.696,0.154,0.08800001
2.7,0.154,0.08000001
2.704,0.158,0.08000001
2.708,0.162,0.08000001
2.712,0.166,0.072
2.716,0.162,0.064
2.72,0.166,0.048
2.724,0.166,0.056
2.728,0.17,0.04
2.732,0.17,0.04
2.736,0.17,0.032
2.74,0.174,0.032
2.744,0.178,0.024
2.748,0.174,0.016
2.752,0.178,0.008
2.756,0.174,0
2.76,0.178,0
2.764,0.178,0
2.768,0.178,-0.016
2.772,0.178,-0.024
2.776,0.182,-0.032
2.78,0.178,-0.024
2.784,0.178,-0.04
2.788,0.182,-0.04
2.792,0.178,-0.056
2.796,0.178,-0.056
2.8,0.178,-0.064
2.804,0.178,-0.056
2.808,0.174,-0.072
2.812,0.174,-0.08800001
2.816,0.174,-0.08000001
2.82,0.17,-0.08800001
2.824,0.174,-0.096
2.828,0.17,-0.096
2.832,0.174,-0.112
2.836,0.166,-0.112
2.84,0.166,-0.128
2.844,0.162,-0.12
2.848,0.162,-0.128
2.852,0.162,-0.136
2.856,0.158,-0.144
2.86,0.154,-0.152
2.864,0.154,-0.152
2.868,0.154,-0.16
2.872,0.15,-0.16
2.876,0.146,-0.168
2.88,0.146,-0.168
2.884,0.146,-0.176
2.888,0.142,-0.176
2.892,0.138,-0.192
2.896,0.138,-0.184
2.9,0.134,-0.192
2.904,0.13,-0.2
2.908,0.126,-0.2
2.912,0.126,-0.2
2.916,0.126,-0.208
2.92,0.122,-0.216
2.924,0.118,-0.216
2.928,0.114,-0.216
2.932,0.11,-0.224
2.936,0.106,-0.224
2.94,0.106,-0.232
2.944,0.102,-0.232
2.948,0.098,-0.232
2.952,0.098,-0.24
2.956,0.09,-0.24
2.96,0.086,-0.24
2.964,0.086,-0.24
2.968,0.082,-0.248
2.972,0.078,-0.24
2.976,0.074,-0.248
2.98,0.07,-0.248
2.984,0.07,-0.248
2.988,0.066,-0.248
2.992,0.066,-0.256
2.996,0.058,-0.256
3,0.058,-0.248
3.004,0.05,-0.256
3.008,0.05,-0.256
3.012,0.046,-0.256
3.016,0.042,-0.256
3.02,0.038,-0.256
3.024,0.038,-0.264
3.028,0.034,-0.264
3.032,0.026,-0.256
3.036,0.026,-0.264
3.04,0.022,-0.256
3.044,0.018,-0.256
3.048,0.018,-0.256
3.052,0.01,-0.256
3.056,0.01,-0.256
3.06,0.006,-0.256
3.064,0.002,-0.248
3.068,0.002,-0.256
3.072,-0.002,-0.256
3.076,-0.006,-0.248
3.08,-0.006,-0.24
3.084,-0.01,-0.24
3.088,-0.014,-0.248
3.092,-0.018,-0.232
3.096,-0.022,-0.232
3.1,-0.022,-0.232
3.104,-0.03,-0.232
3.108,-0.03,-0.232
3.112,-0.034,-0.224
3.116,-0.034,-0.216
3.12,-0.038,-0.224
3.124,-0.038,-0.208
3.128,-0.042,-0.216
3.132,-0.042,-0.208
3.136,-0.046,-0.2
3.14,-0.046,-0.2
3.144,-0.05,-0.192
3.148,-0.05,-0.184
3.152,-0.054,-0.184
3.156,-0.058,-0.176
3.16,-0.054,-0.168
3.164,-0.058,-0.168
3.168,-0.062,-0.168
3.172,-0.062,-0.16
3.176,-0.066,-0.16
3.18,-0.066,-0.144
3.184,-0.066,-0.144
3.188,-0.066,-0.144
3.192,-0.07,-0.128
3.196,-0.07,-0.128
3.2,-0.074,-0.12
3.204,-0.074,-0.12
3.208,-0.07,-0.112
3.212,-0.078,-0.104
3.216,-0.074,-0.096
3.22,-0.074,-0.096
3.224,-0.078,-0.08800001
3.228,-0.078,-0.072
3.232,-0.078,-0.072
3.236,-0.078,-0.064
3.24,-0.078,-0.048
3.244,-0.078,-0.048
3.248,-0.078,-0.04
3.252,-0.078,-0.04
3.256,-0.078,-0.032
3.26,-0.082,-0.024
3.264,-0.078,-0.016
3.268,-0.082,-0.016
3.272,-0.078,-0.008
3.276,-0.082,0
3.28,-0.078,0.008
3.284,-0.082,0.016
3.288,-0.082,0.024
3.292,-0.082,0.032
3.296,-0.078,0.032
3.3,-0.078,0.04
3.304,-0.078,0.048
3.308,-0.074,0.048
3.312,-0.074,0.064
3.316,-0.074,0.072
3.32,-0.074,0.08000001
3.324,-0.074,0.08000001
3.328,-0.074,0.08800001
3.332,-0.074,0.096
3.336,-0.074,0.096
3.34,-0.066,0.104
3.344,-0.07,0.104
3.348,-0.07,0.112
3.352,-0.066,0.12
3.356,-0.07,0.128
3.36,-0.07,0.136
3.364,-0.066,0.144
3.368,-0.062,0.152
3.372,-0.066,0.152
3.376,-0.058,0.16
3.38,-0.058,0.16
3.384,-0.058,0.168
3.388,-0.058,0.176
3.392,-0.058,0.184
3.396,-0.058,0.184
3.4,-0.054,0.192
3.404,-0.05,0.192
3.408,-0.054,0.2
3.412,-0.05,0.208
3.416,-0.05,0.2
3.42,-0.05,0.208
3.424,-0.046,0.208
3.428,-0.046,0.216
3.432,-0.042,0.216
3.436,-0.038,0.232
3.44,-0.038,0.224
3.444,-0.038,0.232
3.448,-0.038,0.232
3.452,-0.034,0.24
3.456,-0.03,0.24
3.46,-0.034,0.248
3.464,-0.034,0.248
3.468,-0.03,0.248
3.472,-0.03,0.248
3.476,-0.026,0.248
3.48,-0.026,0.256
3.484,-0.022,0.264
3.488,-0.022,0.264
3.492,-0.022,0.272
3.496,-0.022,0.264
3.5,-0.022,0.264
3.504,-0.022,0.272
3.508,-0.018,0.272
3.512,-0.014,0.272
3.516,-0.018,0.272
3.52,-0.01,0.264
3.524,-0.014,0.272
3.528,-0.01,0.272
3.532,-0.01,0.272
3.536,-0.01,0.272
3.54,-0.01,0.272
3.544,-0.006,0.272
3.548,-0.006,0.272
3.552,-0.006,0.264
3.556,-0.006,0.264
3.56,-0.006,0.264
3.564,-0.002,0.264
3.568,-0.006,0.272
3.572,-0.002,0.256
3.576,-0.002,0.264
3.58,-0.002,0.256
3.584,-0.002,0.256
3.588,-0.002,0.248
3.592,-0.002,0.248
3.596,0.002,0.248
3.6,0.002,0.248
3.604,0.002,0.24
3.608,0.002,0.24
3.612,-0.002,0.24
3.616,0.006,0.232
3.62,0.002,0.224
3.624,0.002,0.232
3.628,0.002,0.216
3.632,0.006,0.224
3.636,0.002,0.216
3.64,0.002,0.216
3.644,0.002,0.208
3.648,0.006,0.2
3.652,0.006,0.2
3.656,0.006,0.192
3.66,0.006,0.184
3.664,0.006,0.184
3.668,0.002,0.176
3.672,0.002,0.168
3.676,0.002,0.168
3.68,0.002,0.16
3.684,0.006,0.152
3.688,0.006,0.152
3.692,0.002,0.144
3.696,0.002,0.136
3.7,0.002,0.128
3.704,0.002,0.128
3.708,0.002,0.12
3.712,0.002,0.112
3.716,0.006,0.104
3.72,0.002,0.104
3.724,0.002,0.08800001
3.728,0.002,0.08800001
3.732,-0.002,0.08000001
3.736,-0.002,0.08800001
3.74,0.002,0.072
3.744,-0.002,0.064
3.748,-0.002,0.056
3.752,-0.002,0.048
3.756,-0.002,0.048
3.76,-0.002,0.04
3.764,-0.002,0.032
3.768,-0.002,0.016
3.772,-0.006,0.016
3.776,-0.006,0.008
3.78,-0.006,0
3.784,-0.006,0
3.788,-0.006,-0.008
3.792,-0.006,-0.024
3.796,-0.002,-0.024
3.8,-0.006,-0.032
3.804,-0.006,-0.04
3.808,-0.006,-0.048
3.812,-0.006,-0.056
3.816,-0.006,-0.064
3.82,-0.01,-0.064
3.824,-0.01,-0.072
3.828,-0.006,-0.08000001
3.832,-0.006,-0.08800001
3.836,-0.01,-0.096
3.84,-0.01,-0.104
3.844,-0.006,-0.112
3.848,-0.006,-0.12
3.852,-0.006,-0.12
3.856,-0.01,-0.128
3.86,-0.006,-0.144
3.864,-0.006,-0.136
3.868,-0.006,-0.152
3.872,-0.006,-0.16
3.876,-0.01,-0.16
3.88,-0.01,-0.16
3.884,-0.006,-0.168
3.888,-0.006,-0.168
3.892,-0.01,-0.176
3.896,-0.006,-0.184
3.9,-0.006,-0.192
3.904,-0.006,-0.2
3.908,-0.006,-0.2
3.912,-0.002,-0.2
3.916,-0.006,-0.216
3.92,-0.006,-0.216
3.924,-0.002,-0.216
3.928,-0.002,-0.224
3.932,-0.006,-0.224
3.936,-0.002,-0.224
3.94,0.002,-0.24
3.944,-0.002,-0.24
3.948,-0.002,-0.248
3.952,-0.002,-0.24
3.956,0.002,-0.248
3.96,-0.002,-0.256
3.964,0.002,-0.256
3.968,0.002,-0.256
3.972,0.006,-0.256
3.976,0.006,-0.264
3.98,0.006,-0.264
3.984,0.01,-0.264
3.988,0.01,-0.264
3.992,0.01,-0.264
3.996,0.01,-0.272
4,0.01,-0.272
4.004,0.014,-0.28
4.008,0.014,-0.272
4.012,0.018,-0.28
4.016,0.018,-0.28
4.02,0.022,-0.28
4.024,0.018,-0.28
4.028,0.022,-0.288
4.032,0.026,-0.28
4.036,0.026,-0.28
4.04,0.026,-0.272
4.044,0.03,-0.272
4.048,0.034,-0.28
4.052,0.03,-0.272
4.056,0.034,-0.272
4.06,0.038,-0.28
4.064,0.038,-0.272
4.068,0.038,-0.272
4.072,0.038,-0.272
4.076,0.046,-0.264
4.08,0.046,-0.264
4.084,0.046,-0.264
4.088,0.046,-0.272
4.092,0.05,-0.264
4.096,0.05,-0.256
4.1,0.05,-0.248
4.104,0.05,-0.248
4.108,0.058,-0.256
4.112,0.058,-0.248
4.116,0.058,-0.248
4.12,0.058,-0.232
4.124,0.062,-0.232
4.128,0.062,-0.232
4.132,0.066,-0.232
4.136,0.07,-0.224
4.14,0.066,-0.216
4.144,0.07,-0.216
4.148,0.07,-0.208
4.152,0.074,-0.208
4.156,0.074,-0.2
4.16,0.074,-0.2
4.164,0.078,-0.192
4.168,0.078,-0.184
4.172,0.078,-0.184
4.176,0.086,-0.184
4.18,0.082,-0.176
4.184,0.086,-0.168
4.188,0.086,-0.168
4.192,0.09,-0.16
4.196,0.09,-0.16
4.2,0.09,-0.144
4.204,0.094,-0.136
4.208,0.09,-0.136
4.212,0.094,-0.128
4.216,0.094,-0.12
4.22,0.098,-0.112
4.224,0.098,-0.112
4.228,0.098,-0.112
4.232,0.098,-0.096
4.236,0.098,-0.08800001
4.24,0.102,-0.08800001
4.244,0.102,-0.08000001
4.248,0.102,-0.072
4.252,0.102,-0.072
4.256,0.106,-0.064
4.26,0.106,-0.056
4.264,0.102,-0.048
4.268,0.106,-0.04
4.272,0.106,-0.04
4.276,0.106,-0.024
4.28,0.11,-0.024
4.284,0.11,-0.016
4.288,0.106,-0.008
4.292,0.106,0
4.296,0.106,0.008
4.3,0.11,0.008
4.304,0.106,0.016
4.308,0.106,0.024
4.312,0.106,0.032
4.316,0.11,0.032
4.32,0.11,0.04
4.324,0.106,0.048
4.328,0.106,0.056
4.332,0.106,0.064
4.336,0.102,0.064
4.34,0.106,0.072
4.344,0.106,0.08000001
4.348,0.102,0.08000001
4.352,0.102,0.08800001
4.356,0.098,0.096
4.36,0.098,0.096
4.364,0.098,0.104
4.368,0.094,0.104
4.372,0.094,0.112
4.376,0.094,0.128
4.38,0.09,0.128
4.384,0.09,0.136
4.388,0.086,0.136
4.392,0.082,0.144
4.396,0.086,0.144
4.4,0.086,0.152
4.404,0.078,0.152
4.408,0.078,0.16
4.412,0.074,0.16
4.416,0.07,0.176
4.42,0.07,0.168
4.424,0.07,0.176
4.428,0.066,0.184
4.432,0.07,0.192
4.436,0.062,0.192
4.44,0.062,0.192
4.444,0.058,0.2
4.448,0.058,0.208
4.452,0.05,0.208
4.456,0.05,0.208
4.46,0.05,0.216
4.464,0.042,0.216
4.468,0.038,0.216
4.472,0.038,0.224
4.476,0.038,0.216
4.48,0.03,0.224
4.484,0.026,0.224
4.488,0.026,0.224
4.492,0.022,0.232
4.496,0.018,0.224
4.5,0.014,0.232
4.504,0.01,0.232
4.508,0.01,0.232
4.512,0.006,0.232
4.516,0.002,0.24
4.52,-0.006,0.24
4.524,-0.01,0.24
4.528,-0.014,0.24
4.532,-0.018,0.24
4.536,-0.018,0.24
4.54,-0.026,0.24
4.544,-0.026,0.24
4.548,-0.03,0.24
4.552,-0.034,0.24
4.556,-0.038,0.24
4.56,-0.042,0.24
4.564,-0.046,0.232
4.568,-0.05,0.232
4.572,-0.054,0.232
4.576,-0.058,0.232
4.58,-0.062,0.232
4.584,-0.066,0.232
4.588,-0.07,0.232
4.592,-0.07,0.224
4.596,-0.078,0.224
4.6,-0.078,0.224
4.604,-0.086,0.216
4.608,-0.086,0.216
4.612,-0.094,0.216
4.616,-0.094,0.208
4.62,-0.098,0.216
4.624,-0.102,0.208
4.628,-0.11,0.208
4.632,-0.11,0.208
4.636,-0.11,0.208
4.64,-0.122,0.2
4.644,-0.122,0.192
4.648,-0.126,0.184
4.652,-0.126,0.184
4.656,-0.13,0.184
4.66,-0.134,0.176
4.664,-0.134,0.176
4.668,-0.138,0.176
4.672,-0.146,0.168
4.676,-0.146,0.16
4.68,-0.15,0.152
4.684,-0.154,0.152
4.688,-0.158,0.144
4.692,-0.162,0.152
4.696,-0.162,0.136
4.7,-0.166,0.136
4.704,-0.162,0.136
4.708,-0.166,0.128
4.712,-0.17,0.112
4.716,-0.17,0.112
4.72,-0.174,0.112
4.724,-0.178,0.112
4.728,-0.178,0.112
4.732,-0.178,0.096
4.736,-0.178,0.096
4.74,-0.186,0.096
4.744,-0.182,0.08800001
4.748,-0.186,0.08000001
4.752,-0.186,0.072
4.756,-0.186,0.064
4.76,-0.186,0.072
4.764,-0.186,0.048
4.768,-0.186,0.048
4.772,-0.19,0.048
4.776,-0.19,0.032
4.78,-0.186,0.032
4.784,-0.186,0.024
4.788,-0.186,0.024
4.792,-0.186,0.016
4.796,-0.19,0.008
4.8,-0.186,0.008
4.804,-0.186,0
4.808,-0.19,-0.008
4.812,-0.186,-0.008
4.816,-0.186,-0.024
4.82,-0.186,-0.024
4.824,-0.182,-0.024
4.828,-0.182,-0.04
4.832,-0.178,-0.04
4.836,-0.178,-0.04
4.84,-0.178,-0.048
4.844,-0.17,-0.056
4.848,-0.17,-0.056
4.852,-0.17,-0.072
4.856,-0.166,-0.072
4.86,-0.166,-0.08000001
4.864,-0.166,-0.08000001
4.868,-0.162,-0.08000001
4.872,-0.158,-0.096
4.876,-0.158,-0.096
4.88,-0.154,-0.104
4.884,-0.146,-0.104
4.888,-0.15,-0.104
4.892,-0.142,-0.112
4.896,-0.134,-0.112
4.9,-0.134,-0.128
4.904,-0.13,-0.136
4.908,-0.13,-0.136
4.912,-0.122,-0.128
4.916,-0.122,-0.144
4.92,-0.114,-0.144
4.924,-0.11,-0.144
4.928,-0.106,-0.152
4.932,-0.102,-0.16
4.936,-0.098,-0.152
4.94,-0.09,-0.152
4.944,-0.086,-0.16
4.948,-0.082,-0.168
4.952,-0.074,-0.176
4.956,-0.074,-0.168
4.96,-0.07,-0.176
4.964,-0.062,-0.176
4.968,-0.058,-0.176
4.972,-0.05,-0.176
4.976,-0.046,-0.184
4.98,-0.042,-0.184
4.984,-0.038,-0.184
4.988,-0.034,-0.184
4.992,-0.026,-0.192
4.996,-0.022,-0.184
5,-0.014,-0.192
5.004,-0.006,-0.192
5.008,0.002,-0.192
5.012,0.002,-0.192
5.016,0.006,-0.192
5.02,0.014,-0.2
5.024,0.018,-0.192
5.028,0.026,-0.2
5.032,0.03,-0.2
5.036,0.038,-0.2
5.04,0.042,-0.2
5.044,0.05,-0.2
5.048,0.054,-0.2
5.052,0.062,-0.192
5.056,0.066,-0.192
5.06,0.07,-0.2
5.064,0.074,-0.192
5.068,0.078,-0.2
5.072,0.086,-0.192
5.076,0.09,-0.2
5.08,0.098,-0.2
5.084,0.102,-0.192
5.088,0.106,-0.192
5.092,0.11,-0.192
5.096,0.114,-0.184
5.1,0.122,-0.184
5.104,0.13,-0.192
5.108,0.134,-0.184
5.112,0.138,-0.176
5.116,0.146,-0.176
5.12,0.15,-0.176
5.124,0.158,-0.176
5.128,0.162,-0.176
5.132,0.162,-0.176
5.136,0.17,-0.168
5.14,0.174,-0.168
5.144,0.178,-0.168
5.148,0.182,-0.168
5.152,0.182,-0.16
5.156,0.19,-0.16
5.16,0.194,-0.16
5.164,0.198,-0.152
5.168,0.198,-0.152
5.172,0.202,-0.152
5.176,0.206,-0.144
5.18,0.21,-0.144
5.184,0.214,-0.136
5.188,0.218,-0.136
5.192,0.222,-0.136
5.196,0.222,-0.128
5.2,0.226,-0.128
5.204,0.23,-0.128
5.208,0.23,-0.12
5.212,0.234,-0.104
5.216,0.234,-0.112
5.22,0.238,-0.104
5.224,0.238,-0.104
5.228,0.242,-0.096
5.232,0.242,-0.096
5.236,0.246,-0.096
5.24,0.242,-0.08800001
5.244,0.246,-0.08000001
5.248,0.25,-0.08800001
5.252,0.25,-0.08000001
5.256,0.25,-0.072
5.26,0.246,-0.064
5.264,0.254,-0.064
5.268,0.25,-0.056
5.272,0.25,-0.048
5.276,0.25,-0.048
5.28,0.25,-0.048
5.284,0.25,-0.04
5.288,0.25,-0.04
5.292,0.246,-0.032
5.296,0.25,-0.024
5.3,0.25,-0.032
5.304,0.246,-0.016
5.308,0.246,-0.024
5.312,0.242,-0.016
5.316,0.242,-0.016
5.32,0.242,-0.008
5.324,0.234,-0.008
5.328,0.238,0
5.332,0.234,0
5.336,0.234,0.008
5.34,0.23,0.008
5.344,0.226,0.016
5.348,0.222,0.016
5.352,0.222,0.024
5.356,0.218,0.024
5.36,0.218,0.024
5.364,0.21,0.032
5.368,0.206,0.032
5.372,0.206,0.032
5.376,0.202,0.04
5.38,0.198,0.04
5.384,0.194,0.048
5.388,0.19,0.056
5.392,0.19,0.056
5.396,0.182,0.064
5.4,0.178,0.064
5.404,0.174,0.064
5.408,0.166,0.064
5.412,0.162,0.072
5.416,0.158,0.08000001
5.42,0.154,0.072
5.424,0.15,0.08000001
5.428,0.138,0.08000001
5.432,0.134,0.08800001
5.436,0.13,0.08800001
5.44,0.126,0.096
5.444,0.122,0.096
5.448,0.11,0.096
5.452,0.106,0.096
5.456,0.098,0.096
5.46,0.098,0.096
5.464,0.09,0.104
5.468,0.082,0.104
5.472,0.074,0.104
5.476,0.07,0.104
5.48,0.066,0.104
5.484,0.058,0.104
5.488,0.054,0.112
5.492,0.046,0.112
5.496,0.034,0.12
5.5,0.038,0.112
5.504,0.022,0.112
5.508,0.018,0.12
5.512,0.01,0.112
5.516,0.002,0.12
5.52,-0.002,0.12
5.524,-0.01,0.12
5.528,-0.018,0.12
5.532,-0.026,0.12
5.536,-0.034,0.128
5.54,-0.042,0.12
5.544,-0.05,0.12
5.548,-0.058,0.12
5.552,-0.062,0.128
5.556,-0.07,0.12
5.56,-0.074,0.12
5.564,-0.082,0.128
5.568,-0.09,0.12
5.572,-0.098,0.136
5.576,-0.102,0.12
5.58,-0.11,0.128
5.584,-0.118,0.128
5.588,-0.126,0.12
5.592,-0.13,0.128
5.596,-0.138,0.128
5.6,-0.142,0.128
5.604,-0.15,0.12
5.608,-0.158,0.12
5.612,-0.162,0.12
5.616,-0.17,0.12
5.62,-0.178,0.12
5.624,-0.178,0.12
5.628,-0.186,0.112
5.632,-0.19,0.112
5.636,-0.198,0.112
5.64,-0.202,0.112
5.644,-0.206,0.112
5.648,-0.214,0.112
5.652,-0.218,0.104
5.656,-0.226,0.112
5.66,-0.23,0.104
5.664,-0.23,0.104
5.668,-0.238,0.104
5.672,-0.242,0.104
5.676,-0.246,0.104
5.68,-0.254,0.096
5.684,-0.258,0.096
5.688,-0.262,0.096
5.692,-0.266,0.096
5.696,-0.266,0.096
5.7,-0.274,0.096
5.704,-0.274,0.08800001
5.708,-0.274,0.096
5.712,-0.278,0.08800001
5.716,-0.282,0.08800001
5.72,-0.29,0.08800001
5.724,-0.29,0.08800001
5.728,-0.29,0.08800001
5.732,-0.294,0.08000001
5.736,-0.298,0.08000001
5.74,-0.294,0.08000001
5.744,-0.294,0.08000001
5.748,-0.298,0.072
5.752,-0.302,0.072
5.756,-0.302,0.072
5.76,-0.302,0.064
5.764,-0.302,0.064
5.768,-0.302,0.072
5.772,-0.302,0.064
5.776,-0.298,0.056
5.78,-0.298,0.056
5.784,-0.302,0.056
5.788,-0.298,0.048
5.792,-0.298,0.048
5.796,-0.298,0.048
5.8,-0.294,0.048
5.804,-0.29,0.04
5.808,-0.29,0.04
5.812,-0.29,0.04
5.816,-0.282,0.04
5.82,-0.282,0.032
5.824,-0.278,0.032
5.828,-0.278,0.032
5.832,-0.278,0.032
5.836,-0.27,0.024
5.84,-0.27,0.024
5.844,-0.266,0.016
5.848,-0.258,0.024
5.852,-0.254,0.016
5.856,-0.25,0.016
5.86,-0.25,0.016
5.864,-0.238,0.008
5.868,-0.238,0.016
5.872,-0.234,0.008
5.876,-0.226,0.008
5.88,-0.222,0
5.884,-0.218,0
5.888,-0.214,0
5.892,-0.206,0
5.896,-0.198,0
5.9,-0.198,-0.008
5.904,-0.19,-0.008
5.908,-0.186,0
5.912,-0.178,-0.008
5.916,-0.174,-0.016
5.92,-0.17,-0.008
5.924,-0.162,-0.016
5.928,-0.154,-0.016
5.932,-0.15,-0.024
5.936,-0.138,-0.016
5.94,-0.134,-0.024
5.944,-0.126,-0.024
5.948,-0.118,-0.024
5.952,-0.11,-0.024
5.956,-0.102,-0.024
5.96,-0.098,-0.032
5.964,-0.09,-0.024
5.968,-0.082,-0.032
5.972,-0.07,-0.032
5.976,-0.062,-0.032
5.98,-0.058,-0.04
5.984,-0.05,-0.032
5.988,-0.042,-0.032
5.992,-0.038,-0.04
5.996,-0.03,-0.04
6,-0.022,-0.048
6.004,-0.01,-0.04
6.008,-0.002,-0.04
6.012,0.006,-0.048
6.016,0.01,-0.048
6.02,0.022,-0.048
6.024,0.026,-0.048
6.028,0.038,-0.048
6.032,0.046,-0.048
6.036,0.054,-0.048
6.04,0.062,-0.048
6.044,0.07,-0.048
6.048,0.07,-0.056
6.052,0.078,-0.048
6.056,0.09,-0.056
6.06,0.094,-0.056
6.064,0.102,-0.056
6.068,0.11,-0.056
6.072,0.118,-0.056
6.076,0.126,-0.056
6.08,0.13,-0.056
6.084,0.138,-0.056
6.088,0.146,-0.056
6.092,0.154,-0.064
6.096,0.162,-0.056
6.1,0.166,-0.064
6.104,0.174,-0.064
6.108,0.178,-0.056
6.112,0.182,-0.064
6.116,0.19,-0.064
6.12,0.198,-0.064
6.124,0.202,-0.064
6.128,0.206,-0.064
6.132,0.21,-0.064
6.136,0.218,-0.064
6.14,0.222,-0.064
6.144,0.23,-0.056
6.148,0.234,-0.064
6.152,0.242,-0.064
6.156,0.246,-0.064
6.16,0.246,-0.072
6.164,0.25,-0.064
6.168,0.258,-0.072
6.172,0.262,-0.064
6.176,0.266,-0.064
6.18,0.266,-0.072
6.184,0.27,-0.072
6.188,0.274,-0.064
6.192,0.274,-0.064
6.196,0.282,-0.064
6.2,0.282,-0.064
6.204,0.286,-0.072
6.208,0.286,-0.072
6.212,0.29,-0.072
6.216,0.294,-0.072
6.22,0.298,-0.064
6.224,0.298,-0.064
6.228,0.298,-0.064
6.232,0.302,-0.064
6.236,0.302,-0.072
6.24,0.302,-0.072
6.244,0.302,-0.072
6.248,0.302,-0.072
6.252,0.306,-0.064
6.256,0.306,-0.064
6.26,0.306,-0.064
6.264,0.302,-0.064
6.268,0.306,-0.064
6.272,0.302,-0.064
6.276,0.302,-0.064
6.28,0.302,-0.072
6.284,0.302,-0.064
6.288,0.302,-0.072
6.292,0.298,-0.08000001
6.296,0.298,-0.072
6.3,0.298,-0.064
6.304,0.294,-0.072
6.308,0.294,-0.072
6.312,0.29,-0.056
6.316,0.286,-0.064
6.32,0.286,-0.072
6.324,0.282,-0.064
6.328,0.278,-0.064
6.332,0.278,-0.072
6.336,0.274,-0.064
6.34,0.266,-0.072
6.344,0.266,-0.064
6.348,0.262,-0.064
6.352,0.258,-0.072
6.356,0.258,-0.072
6.36,0.25,-0.072
6.364,0.246,-0.072
6.368,0.238,-0.064
6.372,0.234,-0.072
6.376,0.234,-0.064
6.38,0.23,-0.064
6.384,0.222,-0.064
6.388,0.214,-0.072
6.392,0.21,-0.056
6.396,0.202,-0.072
6.4,0.198,-0.064
6.404,0.198,-0.064
6.408,0.19,-0.064
6.412,0.19,-0.064
6.416,0.178,-0.064
6.42,0.174,-0.064
6.424,0.166,-0.064
6.428,0.158,-0.064
6.432,0.15,-0.056
6.436,0.146,-0.064
6.44,0.138,-0.064
6.444,0.134,-0.056
6.448,0.122,-0.056
6.452,0.118,-0.048
6.456,0.11,-0.056
6.46,0.102,-0.048
6.464,0.098,-0.056
6.468,0.086,-0.056
6.472,0.078,-0.048
6.476,0.07,-0.048
6.48,0.066,-0.056
6.484,0.062,-0.048
6.488,0.054,-0.048
6.492,0.046,-0.048
6.496,0.038,-0.048
6.5,0.03,-0.04
6.504,0.026,-0.04
6.508,0.014,-0.048
6.512,0.01,-0.04
6.516,0.002,-0.04
6.52,-0.006,-0.04
6.524,-0.014,-0.04
6.528,-0.026,-0.04
6.532,-0.034,-0.032
6.536,-0.042,-0.04
6.54,-0.046,-0.032
6.544,-0.054,-0.032
6.548,-0.062,-0.032
6.552,-0.07,-0.032
6.556,-0.078,-0.032
6.56,-0.086,-0.024
6.564,-0.094,-0.024
6.568,-0.098,-0.024
6.572,-0.11,-0.032
6.576,-0.114,-0.024
6.58,-0.122,-0.024
6.584,-0.13,-0.016
6.588,-0.134,-0.024
6.592,-0.146,-0.016
6.596,-0.15,-0.016
6.6,-0.162,-0.016
6.604,-0.162,-0.016
6.608,-0.17,-0.008
6.612,-0.178,-0.008
6.616,-0.182,-0.008
6.62,-0.186,-0.008
6.624,-0.19,0
6.628,-0.198,-0.008
6.632,-0.202,0
6.636,-0.21,0
6.64,-0.214,0.008
6.644,-0.222,0.008
6.648,-0.226,0
6.652,-0.23,0.008
6.656,-0.238,0.016
6.66,-0.242,0.008
6.664,-0.246,0.016
6.668,-0.254,0.016
6.672,-0.254,0.016
6.676,-0.254,0.024
6.68,-0.258,0.024
6.684,-0.266,0.024
6.688,-0.27,0.032
6.692,-0.27,0.024
6.696,-0.278,0.032
6.7,-0.274,0.032
6.704,-0.282,0.032
6.708,-0.286,0.04
6.712,-0.286,0.04
6.716,-0.286,0.04
6.72,-0.29,0.04
6.724,-0.294,0.04
6.728,-0.294,0.04
6.732,-0.294,0.048
6.736,-0.298,0.056
6.74,-0.298,0.048
6.744,-0.298,0.056
6.748,-0.298,0.056
6.752,-0.298,0.064
6.756,-0.298,0.064
6.76,-0.302,0.064
6.764,-0.294,0.072
6.768,-0.298,0.064
6.772,-0.298,0.072
6.776,-0.298,0.072
6.78,-0.294,0.08000001
6.784,-0.294,0.072
6.788,-0.294,0.08000001
6.792,-0.29,0.08800001
6.796,-0.29,0.08000001
6.8,-0.286,0.08000001
6.804,-0.282,0.08800001
6.808,-0.282,0.08800001
6.812,-0.282,0.08800001
6.816,-0.278,0.08800001
6.82,-0.274,0.096
6.824,-0.27,0.08800001
6.828,-0.266,0.096
6.832,-0.262,0.096
6.836,-0.258,0.096
6.84,-0.258,0.104
6.844,-0.25,0.104
6.848,-0.246,0.104
6.852,-0.242,0.096
6.856,-0.238,0.104
6.86,-0.234,0.104
6.864,-0.23,0.104
6.868,-0.222,0.104
6.872,-0.214,0.104
6.876,-0.214,0.104
6.88,-0.21,0.112
6.884,-0.206,0.12
6.888,-0.198,0.112
6.892,-0.19,0.112
6.896,-0.186,0.112
6.9,-0.186,0.112
6.904,-0.178,0.12
6.908,-0.17,0.12
6.912,-0.162,0.12
6.916,-0.158,0.12
6.92,-0.154,0.112
6.924,-0.146,0.12
6.928,-0.138,0.12
6.932,-0.13,0.12
6.936,-0.126,0.12
6.94,-0.114,0.12
6.944,-0.11,0.128
6.948,-0.102,0.12
6.952,-0.094,0.12
6.956,-0.09,0.12
6.96,-0.086,0.12
6.964,-0.074,0.112
6.968,-0.066,0.12
6.972,-0.058,0.112
6.976,-0.054,0.12
6.98,-0.05,0.128
6.984,-0.042,0.12
6.988,-0.03,0.12
6.992,-0.026,0.12
6.996,-0.018,0.112
7,-0.01,0.12
7.004,-0.006,0.12
7.008,0.006,0.112
7.012,0.01,0.12
7.016,0.018,0.112
7.02,0.022,0.112
7.024,0.034,0.112
7.028,0.034,0.112
7.032,0.046,0.112
7.036,0.054,0.112
7.04,0.062,0.104
7.044,0.066,0.096
7.048,0.07,0.096
7.052,0.082,0.104
7.056,0.082,0.096
7.06,0.09,0.096
7.064,0.098,0.104
7.068,0.102,0.096
7.072,0.11,0.096
7.076,0.118,0.08800001
7.08,0.122,0.08800001
7.084,0.13,0.08800001
7.088,0.134,0.08800001
7.092,0.142,0.08000001
7.096,0.146,0.08000001
7.1,0.15,0.08800001
7.104,0.154,0.072
7.108,0.162,0.072
7.112,0.162,0.072
7.116,0.17,0.064
7.12,0.174,0.064
7.124,0.182,0.064
7.128,0.186,0.056
7.132,0.194,0.056
7.136,0.194,0.048
7.14,0.202,0.048
7.144,0.202,0.048
7.148,0.206,0.04
7.152,0.21,0.04
7.156,0.21,0.032
7.16,0.222,0.032
7.164,0.218,0.032
7.168,0.226,0.024
7.172,0.222,0.024
7.176,0.226,0.016
7.18,0.23,0.016
7.184,0.238,0.008
7.188,0.238,0.008
7.192,0.242,0.008
7.196,0.242,0
7.2,0.242,-0.008
7.204,0.242,0
7.208,0.246,-0.008
7.212,0.25,-0.008
7.216,0.25,-0.016
7.22,0.25,-0.016
7.224,0.25,-0.032
7.228,0.25,-0.032
7.232,0.25,-0.032
7.236,0.258,-0.04
7.24,0.25,-0.048
7.244,0.254,-0.04
7.248,0.254,-0.048
7.252,0.254,-0.056
7.256,0.25,-0.056
7.26,0.254,-0.064
7.264,0.254,-0.064
7.268,0.25,-0.064
7.272,0.25,-0.072
7.276,0.254,-0.08000001
7.28,0.25,-0.08800001
7.284,0.246,-0.08000001
7.288,0.246,-0.08800001
7.292,0.242,-0.096
7.296,0.242,-0.096
7.3,0.242,-0.104
7.304,0.238,-0.104
7.308,0.234,-0.112
7.312,0.234,-0.112
7.316,0.23,-0.12
7.32,0.23,-0.112
7.324,0.23,-0.128
7.328,0.222,-0.128
7.332,0.222,-0.128
7.336,0.218,-0.136
7.34,0.214,-0.136
7.344,0.214,-0.144
7.348,0.206,-0.152
7.352,0.206,-0.144
7.356,0.202,-0.152
7.36,0.198,-0.152
7.364,0.194,-0.16
7.368,0.19,-0.16
7.372,0.186,-0.16
7.376,0.182,-0.16
7.38,0.178,-0.168
7.384,0.174,-0.168
7.388,0.17,-0.176
7.392,0.162,-0.168
7.396,0.158,-0.176
7.4,0.158,-0.176
7.404,0.15,-0.176
7.408,0.15,-0.176
7.412,0.146,-0.184
7.416,0.134,-0.184
7.42,0.134,-0.192
7.424,0.126,-0.176
7.428,0.122,-0.192
7.432,0.114,-0.192
7.436,0.11,-0.2
7.44,0.106,-0.192
7.444,0.098,-0.192
7.448,0.094,-0.2
7.452,0.09,-0.2
7.456,0.086,-0.2
7.46,0.074,-0.2
7.464,0.07,-0.192
7.468,0.07,-0.2
7.472,0.062,-0.192
7.476,0.058,-0.2
7.48,0.05,-0.192
7.484,0.046,-0.192
7.488,0.042,-0.192
7.492,0.034,-0.184
7.496,0.026,-0.192
7.5,0.026,-0.192
7.504,0.014,-0.192
7.508,0.01,-0.192
7.512,0.002,-0.184
7.516,-0.002,-0.192
7.52,-0.006,-0.184
7.524,-0.014,-0.184
7.528,-0.018,-0.192
7.532,-0.026,-0.184
7.536,-0.03,-0.184
7.54,-0.034,-0.184
7.544,-0.038,-0.192
7.548,-0.046,-0.184
7.552,-0.054,-0.176
7.556,-0.058,-0.168
7.56,-0.062,-0.168
7.564,-0.062,-0.168
7.568,-0.07,-0.16
7.572,-0.074,-0.16
7.576,-0.082,-0.16
7.58,-0.086,-0.16
7.584,-0.086,-0.16
7.588,-0.098,-0.152
7.592,-0.098,-0.152
7.596,-0.106,-0.144
7.6,-0.106,-0.144
7.604,-0.11,-0.136
7.608,-0.118,-0.136
7.612,-0.118,-0.136
7.616,-0.126,-0.128
7.62,-0.126,-0.12
7.624,-0.13,-0.112
7.628,-0.134,-0.12
7.632,-0.142,-0.112
7.636,-0.142,-0.112
7.64,-0.146,-0.104
7.644,-0.15,-0.096
7.648,-0.154,-0.08800001
7.652,-0.158,-0.096
7.656,-0.158,-0.08000001
7.66,-0.162,-0.08000001
7.664,-0.162,-0.072
7.668,-0.166,-0.072
7.672,-0.166,-0.064
7.676,-0.17,-0.056
7.68,-0.174,-0.056
7.684,-0.178,-0.048
7.688,-0.178,-0.04
7.692,-0.178,-0.032
7.696,-0.178,-0.032
7.7,-0.182,-0.032
7.704,-0.182,-0.024
7.708,-0.186,-0.016
7.712,-0.186,-0.016
7.716,-0.186,-0.008
7.72,-0.186,0
7.724,-0.186,0
7.728,-0.19,0.008
7.732,-0.186,0.016
7.736,-0.186,0.016
7.74,-0.186,0.024
7.744,-0.19,0.032
7.748,-0.186,0.04
7.752,-0.186,0.048
7.756,-0.186,0.048
7.76,-0.186,0.048
7.764,-0.186,0.064
7.768,-0.186,0.064
7.772,-0.186,0.072
7.776,-0.186,0.08000001
7.78,-0.182,0.08000001
7.784,-0.182,0.08000001
7.788,-0.182,0.08800001
7.792,-0.182,0.096
7.796,-0.178,0.096
7.8,-0.174,0.104
7.804,-0.174,0.104
7.808,-0.17,0.112
7.812,-0.174,0.12
7.816,-0.166,0.128
7.82,-0.166,0.128
7.824,-0.166,0.128
7.828,-0.158,0.136
7.832,-0.158,0.136
7.836,-0.158,0.144
7.84,-0.154,0.152
7.844,-0.15,0.16
7.848,-0.146,0.16
7.852,-0.142,0.16
7.856,-0.142,0.168
7.86,-0.138,0.168
7.864,-0.134,0.168
7.868,-0.13,0.176
7.872,-0.126,0.184
7.876,-0.126,0.192
7.88,-0.118,0.184
7.884,-0.118,0.192
7.888,-0.114,0.192
7.892,-0.11,0.192
7.896,-0.106,0.2
7.9,-0.102,0.208
7.904,-0.098,0.208
7.908,-0.098,0.216
7.912,-0.09,0.216
7.916,-0.09,0.216
7.92,-0.086,0.224
7.924,-0.082,0.224
7.928,-0.074,0.224
7.932,-0.07,0.224
7.936,-0.07,0.232
7.94,-0.062,0.232
7.944,-0.058,0.224
7.948,-0.054,0.232
7.952,-0.054,0.224
7.956,-0.05,0.232
7.96,-0.046,0.224
7.964,-0.034,0.232
7.968,-0.038,0.232
7.972,-0.034,0.232
7.976,-0.03,0.24
7.98,-0.026,0.24
7.984,-0.022,0.232
7.988,-0.018,0.24
7.992,-0.014,0.232
7.996,-0.01,0.232
8,-0.006,0.232
8.004,0.002,0.224
8.008,0.006,0.232
8.012,0.006,0.232
8.016,0.014,0.232
8.02,0.014,0.232
8.024,0.018,0.224
8.028,0.018,0.232
8.032,0.022,0.224
8.036,0.026,0.224
8.04,0.03,0.216
8.044,0.034,0.224
8.048,0.038,0.216
8.052,0.046,0.216
8.056,0.042,0.208
8.06,0.046,0.208
8.064,0.05,0.208
8.068,0.054,0.2
8.072,0.058,0.192
8.076,0.058,0.2
8.08,0.062,0.192
8.084,0.066,0.184
8.088,0.066,0.176
8.092,0.07,0.184
8.096,0.07,0.184
8.1,0.074,0.184
8.104,0.078,0.168
8.108,0.078,0.176
8.112,0.078,0.16
8.116,0.082,0.16
8.12,0.082,0.152
8.124,0.082,0.144
8.128,0.086,0.144
8.132,0.09,0.136
8.136,0.09,0.136
8.14,0.094,0.128
8.144,0.098,0.12
8.148,0.094,0.12
8.152,0.098,0.112
8.156,0.102,0.112
8.16,0.102,0.104
8.164,0.102,0.096
8.168,0.11,0.096
8.172,0.102,0.096
8.176,0.106,0.08800001
8.18,0.106,0.08000001
8.184,0.106,0.072
8.188,0.11,0.08000001
8.192,0.11,0.064
8.196,0.11,0.056
8.2,0.11,0.056
8.204,0.11,0.048
8.208,0.114,0.04
8.212,0.11,0.032
8.216,0.106,0.024
8.22,0.11,0.024
8.224,0.11,0.016
8.228,0.11,0.008
8.232,0.11,0
8.236,0.114,0
8.24,0.11,-0.008
8.244,0.11,-0.024
8.248,0.11,-0.024
8.252,0.11,-0.024
8.256,0.11,-0.04
8.26,0.11,-0.048
8.264,0.106,-0.056
8.268,0.106,-0.056
8.272,0.106,-0.064
8.276,0.11,-0.072
8.28,0.106,-0.08000001
8.284,0.102,-0.08000001
8.288,0.106,-0.08800001
8.292,0.102,-0.096
8.296,0.102,-0.104
8.3,0.098,-0.112
8.304,0.098,-0.12
8.308,0.098,-0.12
8.312,0.098,-0.128
8.316,0.094,-0.136
8.32,0.094,-0.136
8.324,0.094,-0.144
8.328,0.094,-0.152
8.332,0.09,-0.16
8.336,0.086,-0.16
8.34,0.082,-0.168
8.344,0.082,-0.168
8.348,0.082,-0.184
8.352,0.082,-0.176
8.356,0.082,-0.184
8.36,0.078,-0.192
8.364,0.078,-0.2
8.368,0.078,-0.2
8.372,0.074,-0.2
8.376,0.07,-0.208
8.38,0.07,-0.224
8.384,0.07,-0.216
8.388,0.066,-0.216
8.392,0.066,-0.224
8.396,0.062,-0.232
8.4,0.062,-0.224
8.404,0.062,-0.232
8.408,0.058,-0.232
8.412,0.062,-0.24
8.416,0.058,-0.24
8.42,0.058,-0.248
8.424,0.054,-0.248
8.428,0.05,-0.256
8.432,0.046,-0.256
8.436,0.046,-0.256
8.44,0.046,-0.256
8.444,0.046,-0.264
8.448,0.042,-0.264
8.452,0.042,-0.264
8.456,0.038,-0.272
8.46,0.038,-0.272
8.464,0.034,-0.264
8.468,0.03,-0.272
8.472,0.034,-0.272
8.476,0.03,-0.272
8.48,0.03,-0.272
8.484,0.03,-0.272
8.488,0.022,-0.272
8.492,0.022,-0.272
8.496,0.022,-0.272
8.5,0.014,-0.272
8.504,0.018,-0.264
8.508,0.022,-0.272
8.512,0.014,-0.272
8.516,0.014,-0.272
8.52,0.014,-0.272
8.524,0.01,-0.272
8.528,0.006,-0.264
8.532,0.006,-0.256
8.536,0.006,-0.264
8.54,0.006,-0.264
8.544,0.006,-0.256
8.548,0.006,-0.256
8.552,0.006,-0.256
8.556,0.002,-0.248
8.56,-0.002,-0.248
8.564,0.002,-0.248
8.568,-0.002,-0.24
8.572,-0.002,-0.232
8.576,-0.002,-0.232
8.58,-0.006,-0.224
8.584,-0.006,-0.232
8.588,-0.006,-0.224
8.592,-0.006,-0.216
8.596,-0.01,-0.216
8.6,-0.01,-0.208
8.604,-0.01,-0.208
8.608,-0.01,-0.2
8.612,-0.01,-0.2
8.616,-0.01,-0.2
8.62,-0.014,-0.192
8.624,-0.01,-0.176
8.628,-0.006,-0.176
8.632,-0.014,-0.176
8.636,-0.01,-0.168
8.64,-0.01,-0.168
8.644,-0.014,-0.16
8.648,-0.014,-0.152
8.652,-0.014,-0.144
8.656,-0.014,-0.136
8.66,-0.014,-0.128
8.664,-0.018,-0.128
8.668,-0.014,-0.12
8.672,-0.014,-0.12
8.676,-0.018,-0.112
8.68,-0.014,-0.104
8.684,-0.01,-0.104
8.688,-0.01,-0.08800001
8.692,-0.014,-0.08000001
8.696,-0.014,-0.08000001
8.7,-0.01,-0.064
8.704,-0.01,-0.064
8.708,-0.014,-0.056
8.712,-0.01,-0.056
8.716,-0.01,-0.04
8.72,-0.01,-0.048
8.724,-0.01,-0.032
8.728,-0.01,-0.024
8.732,-0.006,-0.024
8.736,-0.01,-0.008
8.74,-0.014,0
8.744,-0.01,0
8.748,-0.01,0.008
8.752,-0.006,0.016
8.756,-0.006,0.016
8.76,-0.006,0.032
8.764,-0.014,0.04
8.768,-0.01,0.04
8.772,-0.01,0.048
8.776,-0.01,0.064
8.78,-0.01,0.064
8.784,-0.006,0.072
8.788,-0.006,0.08000001
8.792,-0.006,0.08800001
8.796,-0.006,0.08800001
8.8,-0.006,0.096
8.804,-0.006,0.096
8.808,-0.006,0.104
8.812,-0.006,0.112
8.816,-0.006,0.12
8.82,-0.002,0.128
8.824,-0.002,0.128
8.828,-0.002,0.128
8.832,-0.006,0.144
8.836,-0.002,0.144
8.84,-0.002,0.152
8.844,-0.002,0.16
8.848,-0.002,0.168
8.852,-0.006,0.168
8.856,-0.002,0.176
8.86,0.002,0.176
8.864,0.002,0.184
8.868,-0.002,0.192
8.872,-0.002,0.192
8.876,-0.002,0.192
8.88,-0.002,0.208
8.884,0.002,0.2
8.888,0.002,0.2
8.892,-0.002,0.208
8.896,0.002,0.216
8.9,-0.002,0.216
8.904,-0.002,0.232
8.908,-0.002,0.224
8.912,-0.002,0.232
8.916,-0.006,0.232
8.92,-0.002,0.24
8.924,-0.002,0.24
8.928,-0.002,0.248
8.932,-0.006,0.248
8.936,-0.002,0.24
8.94,-0.002,0.248
8.944,-0.002,0.256
8.948,-0.002,0.256
8.952,-0.002,0.256
8.956,-0.006,0.256
8.96,-0.01,0.264
8.964,-0.006,0.264
8.968,-0.006,0.264
8.972,-0.01,0.264
8.976,-0.01,0.264
8.98,-0.01,0.264
8.984,-0.01,0.264
8.988,-0.01,0.264
8.992,-0.01,0.264
8.996,-0.014,0.264
9,-0.014,0.264
9.004,-0.01,0.264
9.008,-0.014,0.264
9.012,-0.018,0.256
9.016,-0.018,0.264
9.02,-0.018,0.264
9.024,-0.018,0.264
9.028,-0.018,0.256
9.032,-0.022,0.256
9.036,-0.022,0.256
9.04,-0.022,0.256
9.044,-0.022,0.256
9.048,-0.022,0.256
9.052,-0.026,0.24
9.056,-0.026,0.24
9.06,-0.03,0.248
9.064,-0.03,0.24
9.068,-0.034,0.24
9.072,-0.034,0.232
9.076,-0.034,0.232
9.08,-0.034,0.224
9.084,-0.034,0.224
9.088,-0.038,0.216
9.092,-0.034,0.216
9.096,-0.038,0.216
9.1,-0.042,0.208
9.104,-0.042,0.2
9.108,-0.042,0.2
9.112,-0.046,0.2
9.116,-0.046,0.2
9.12,-0.046,0.192
9.124,-0.046,0.184
9.128,-0.046,0.176
9.132,-0.05,0.176
9.136,-0.05,0.168
9.14,-0.05,0.168
9.144,-0.058,0.16
9.148,-0.054,0.152
9.152,-0.058,0.152
9.156,-0.058,0.136
9.16,-0.058,0.136
9.164,-0.058,0.136
9.168,-0.058,0.128
9.172,-0.058,0.12
9.176,-0.062,0.12
9.18,-0.062,0.112
9.184,-0.062,0.112
9.188,-0.062,0.104
9.192,-0.062,0.096
9.196,-0.062,0.08800001
9.2,-0.062,0.08800001
9.204,-0.066,0.08000001
9.208,-0.066,0.072
9.212,-0.066,0.072
9.216,-0.07,0.056
9.22,-0.066,0.048
9.224,-0.066,0.048
9.228,-0.07,0.04
9.232,-0.066,0.032
9.236,-0.07,0.024
9.24,-0.07,0.032
9.244,-0.074,0.008
9.248,-0.07,0.008
9.252,-0.074,-0.008
9.256,-0.074,-0.008
9.26,-0.07,-0.008
9.264,-0.074,-0.016
9.268,-0.07,-0.024
9.272,-0.07,-0.032
9.276,-0.07,-0.04
9.28,-0.07,-0.048
9.284,-0.07,-0.048
9.288,-0.066,-0.064
9.292,-0.066,-0.072
9.296,-0.07,-0.064
9.3,-0.07,-0.072
9.304,-0.07,-0.08000001
9.308,-0.07,-0.08800001
9.312,-0.066,-0.096
9.316,-0.07,-0.104
9.32,-0.066,-0.112
9.324,-0.066,-0.12
9.328,-0.066,-0.12
9.332,-0.062,-0.128
9.336,-0.062,-0.128
9.34,-0.062,-0.136
9.344,-0.062,-0.144
9.348,-0.058,-0.152
9.352,-0.058,-0.152
9.356,-0.054,-0.16
9.36,-0.054,-0.168
9.364,-0.054,-0.168
9.368,-0.054,-0.168
9.372,-0.05,-0.176
9.376,-0.046,-0.176
9.38,-0.046,-0.184
9.384,-0.046,-0.192
9.388,-0.042,-0.192
9.392,-0.038,-0.2
9.396,-0.038,-0.2
9.4,-0.034,-0.208
9.404,-0.034,-0.208
9.408,-0.026,-0.216
9.412,-0.03,-0.216
9.416,-0.026,-0.224
9.42,-0.022,-0.224
9.424,-0.018,-0.224
9.428,-0.022,-0.232
9.432,-0.018,-0.224
9.436,-0.014,-0.232
9.44,-0.01,-0.232
9.444,-0.01,-0.24
9.448,-0.006,-0.24
9.452,-0.002,-0.248
9.456,0.002,-0.24
9.46,0.002,-0.248
9.464,0.006,-0.248
9.468,0.01,-0.248
9.472,0.01,-0.256
9.476,0.014,-0.256
9.48,0.018,-0.256
9.484,0.018,-0.256
9.488,0.022,-0.256
9.492,0.026,-0.256
9.496,0.03,-0.248
9.5,0.034,-0.256
9.504,0.034,-0.256
9.508,0.042,-0.256
9.512,0.042,-0.248
9.516,0.046,-0.256
9.52,0.046,-0.256
9.524,0.054,-0.248
9.528,0.054,-0.248
9.532,0.058,-0.256
9.536,0.062,-0.24
9.54,0.062,-0.248
9.544,0.066,-0.248
9.548,0.07,-0.248
9.552,0.07,-0.24
9.556,0.074,-0.232
9.56,0.074,-0.24
9.564,0.078,-0.232
9.568,0.082,-0.232
9.572,0.086,-0.232
9.576,0.09,-0.224
9.58,0.09,-0.224
9.584,0.094,-0.216
9.588,0.102,-0.216
9.592,0.102,-0.208
9.596,0.106,-0.208
9.6,0.102,-0.208
9.604,0.11,-0.2
9.608,0.11,-0.2
9.612,0.118,-0.2
9.616,0.114,-0.192
9.62,0.118,-0.192
9.624,0.122,-0.184
9.628,0.122,-0.184
9.632,0.126,-0.176
9.636,0.13,-0.176
9.64,0.13,-0.168
9.644,0.134,-0.168
9.648,0.134,-0.16
9.652,0.138,-0.152
9.656,0.138,-0.152
9.66,0.138,-0.152
9.664,0.146,-0.152
9.668,0.146,-0.136
9.672,0.146,-0.128
9.676,0.15,-0.128
9.68,0.15,-0.12
9.684,0.146,-0.112
9.688,0.15,-0.112
9.692,0.15,-0.104
9.696,0.158,-0.096
9.7,0.154,-0.096
9.704,0.158,-0.08800001
9.708,0.154,-0.08800001
9.712,0.158,-0.072
9.716,0.158,-0.064
9.72,0.162,-0.064
9.724,0.162,-0.056
9.728,0.162,-0.056
9.732,0.158,-0.048
9.736,0.162,-0.04
9.74,0.162,-0.032
9.744,0.162,-0.024
9.748,0.162,-0.024
9.752,0.162,-0.024
9.756,0.162,-0.016
9.76,0.162,-0.008
9.764,0.162,0
9.768,0.162,0
9.772,0.158,0.008
9.776,0.158,0.016
9.78,0.158,0.024
9.784,0.154,0.024
9.788,0.154,0.024
9.792,0.154,0.04
9.796,0.15,0.04
9.8,0.15,0.048
9.804,0.15,0.056
9.808,0.146,0.056
9.812,0.146,0.064
9.816,0.15,0.072
9.82,0.142,0.08000001
9.824,0.142,0.08000001
9.828,0.138,0.08800001
9.832,0.134,0.08800001
9.836,0.134,0.096
9.84,0.13,0.096
9.844,0.13,0.104
9.848,0.126,0.112
9.852,0.122,0.12
9.856,0.118,0.12
9.86,0.114,0.12
9.864,0.114,0.128
9.868,0.106,0.136
9.872,0.106,0.136
9.876,0.102,0.136
9.88,0.098,0.144
9.884,0.098,0.144
9.888,0.094,0.144
9.892,0.086,0.152
9.896,0.086,0.152
9.9,0.078,0.152
9.904,0.078,0.16
9.908,0.074,0.168
9.912,0.07,0.168
9.916,0.066,0.168
9.92,0.062,0.176
9.924,0.058,0.168
9.928,0.058,0.176
9.932,0.054,0.176
9.936,0.046,0.184
9.94,0.046,0.176
9.944,0.038,0.184
9.948,0.03,0.184
9.952,0.022,0.192
9.956,0.026,0.192
9.96,0.014,0.192
9.964,0.014,0.2
9.968,0.01,0.192
9.972,0.002,0.2
9.976,-0.002,0.2
9.98,-0.002,0.192
9.984,-0.01,0.2
9.988,-0.014,0.2
9.992,-0.018,0.2
9.996,-0.026,0.2
10,-0.03,0.2
10.004,-0.034,0.208
10.008,-0.042,0.2
10.012,-0.046,0.2
10.016,-0.054,0.2
10.02,-0.058,0.2
10.024,-0.062,0.2
10.028,-0.066,0.2
10.032,-0.07,0.2
10.036,-0.078,0.2
10.04,-0.082,0.2
10.044,-0.09,0.2
10.048,-0.09,0.2
10.052,-0.098,0.192
10.056,-0.102,0.192
10.06,-0.11,0.192
10.064,-0.114,0.192
10.068,-0.118,0.184
10.072,-0.118,0.184
10.076,-0.126,0.184
10.08,-0.134,0.184
10.084,-0.134,0.176
10.088,-0.142,0.176
10.092,-0.146,0.176
10.096,-0.15,0.168
10.1,-0.15,0.168
10.104,-0.158,0.168
10.108,-0.162,0.168
10.112,-0.162,0.16
10.116,-0.17,0.16
10.12,-0.174,0.152
10.124,-0.178,0.152
10.128,-0.182,0.152
10.132,-0.186,0.144
10.136,-0.186,0.144
10.14,-0.19,0.136
10.144,-0.194,0.136
10.148,-0.194,0.136
10.152,-0.198,0.128
10.156,-0.198,0.12
10.16,-0.202,0.12
10.164,-0.206,0.12
10.168,-0.21,0.12
10.172,-0.21,0.112
10.176,-0.214,0.104
10.18,-0.21,0.096
10.184,-0.214,0.096
10.188,-0.218,0.104
10.192,-0.218,0.096
10.196,-0.222,0.08800001
10.2,-0.222,0.08000001
10.204,-0.226,0.08800001
10.208,-0.226,0.08000001
10.212,-0.226,0.072
10.216,-0.226,0.08000001
10.22,-0.226,0.072
10.224,-0.226,0.072
10.228,-0.23,0.056
10.232,-0.226,0.048
10.236,-0.226,0.056
10.24,-0.23,0.04
10.244,-0.226,0.048
10.248,-0.226,0.04
10.252,-0.23,0.04
10.256,-0.226,0.032
10.26,-0.222,0.032
10.264,-0.226,0.024
10.268,-0.222,0.024
10.272,-0.222,0.016
10.276,-0.222,0.008
10.28,-0.218,0
10.284,-0.21,0
10.288,-0.214,0
10.292,-0.21,-0.008
10.296,-0.206,-0.016
10.3,-0.206,-0.016
10.304,-0.206,-0.024
10.308,-0.202,-0.024
10.312,-0.198,-0.024
10.316,-0.198,-0.04
10.32,-0.194,-0.04
10.324,-0.19,-0.04
10.328,-0.186,-0.048
10.332,-0.186,-0.048
10.336,-0.178,-0.048
10.34,-0.178,-0.048
10.344,-0.174,-0.064
10.348,-0.17,-0.064
10.352,-0.17,-0.064
10.356,-0.162,-0.064
10.36,-0.154,-0.072
10.364,-0.15,-0.08000001
10.368,-0.146,-0.08800001
10.372,-0.138,-0.08800001
10.376,-0.134,-0.08800001
10.38,-0.126,-0.08800001
10.384,-0.126,-0.096
10.388,-0.118,-0.096
10.392,-0.114,-0.104
10.396,-0.11,-0.096
10.4,-0.106,-0.112
10.404,-0.098,-0.112
10.408,-0.09,-0.112
10.412,-0.086,-0.12
10.416,-0.082,-0.112
10.42,-0.074,-0.12
10.424,-0.07,-0.12
10.428,-0.062,-0.12
10.432,-0.058,-0.128
10.436,-0.054,-0.136
10.44,-0.046,-0.128
10.444,-0.038,-0.144
10.448,-0.03,-0.136
10.452,-0.022,-0.128
10.456,-0.018,-0.136
10.46,-0.014,-0.144
10.464,-0.006,-0.144
10.468,0.002,-0.144
10.472,0.01,-0.144
10.476,0.014,-0.152
10.48,0.022,-0.144
10.484,0.03,-0.144
10.488,0.034,-0.144
10.492,0.038,-0.152
10.496,0.046,-0.152
10.5,0.054,-0.152
10.504,0.058,-0.144
10.508,0.066,-0.144
10.512,0.07,-0.152
10.516,0.078,-0.152
10.52,0.082,-0.152
10.524,0.09,-0.152
10.528,0.094,-0.152
10.532,0.098,-0.152
10.536,0.106,-0.152
10.54,0.114,-0.144
10.544,0.122,-0.152
10.548,0.126,-0.144
10.552,0.13,-0.144
10.556,0.138,-0.144
10.56,0.142,-0.144
10.564,0.15,-0.144
10.568,0.154,-0.144
10.572,0.158,-0.144
10.576,0.162,-0.144
10.58,0.17,-0.144
10.584,0.174,-0.144
10.588,0.178,-0.136
10.592,0.186,-0.144
10.596,0.19,-0.136
10.6,0.194,-0.136
10.604,0.198,-0.136
10.608,0.202,-0.136
10.612,0.21,-0.12
10.616,0.214,-0.128
10.62,0.218,-0.128
10.624,0.222,-0.128
10.628,0.222,-0.128
10.632,0.23,-0.128
10.636,0.234,-0.128
10.64,0.238,-0.12
10.644,0.238,-0.12
10.648,0.246,-0.112
10.652,0.242,-0.112
10.656,0.25,-0.12
10.66,0.25,-0.112
10.664,0.25,-0.104
10.668,0.254,-0.104
10.672,0.258,-0.104
10.676,0.262,-0.096
10.68,0.262,-0.104
10.684,0.262,-0.096
10.688,0.262,-0.096
10.692,0.266,-0.096
10.696,0.266,-0.08000001
10.7,0.27,-0.08800001
10.704,0.27,-0.08800001
10.708,0.27,-0.08000001
10.712,0.27,-0.08000001
10.716,0.27,-0.072
10.72,0.274,-0.072
10.724,0.274,-0.08000001
10.728,0.274,-0.064
10.732,0.274,-0.064
10.736,0.27,-0.064
10.74,0.27,-0.056
10.744,0.27,-0.056
10.748,0.27,-0.056
10.752,0.27,-0.048
10.756,0.266,-0.056
10.76,0.262,-0.048
10.764,0.262,-0.048
10.768,0.262,-0.04
10.772,0.262,-0.04
10.776,0.258,-0.024
10.78,0.258,-0.032
10.784,0.258,-0.032
10.788,0.25,-0.032
10.792,0.246,-0.032
10.796,0.246,-0.024
10.8,0.246,-0.024
10.804,0.238,-0.016
10.808,0.238,-0.016
10.812,0.234,-0.016
10.816,0.23,-0.016
10.82,0.23,0
10.824,0.222,-0.008
10.828,0.214,0
10.832,0.218,-0.008
10.836,0.21,0
10.84,0.21,0
10.844,0.202,0.008
10.848,0.198,0.008
10.852,0.19,0.008
10.856,0.186,0.016
10.86,0.186,0.008
10.864,0.182,0.016
10.868,0.174,0.024
10.872,0.166,0.024
10.876,0.162,0.024
10.88,0.158,0.024
10.884,0.15,0.024
10.888,0.142,0.024
10.892,0.138,0.032
10.896,0.13,0.04
10.9,0.126,0.032
10.904,0.118,0.04
10.908,0.114,0.04
10.912,0.106,0.04
10.916,0.102,0.048
10.92,0.094,0.04
10.924,0.086,0.048
10.928,0.082,0.048
10.932,0.07,0.048
10.936,0.066,0.048
10.94,0.062,0.04
10.944,0.058,0.056
10.948,0.05,0.048
10.952,0.042,0.048
10.956,0.034,0.064
10.96,0.026,0.064
10.964,0.022,0.056
10.968,0.014,0.064
10.972,0.006,0.056
10.976,-0.006,0.064
10.98,-0.014,0.064
10.984,-0.018,0.064
10.988,-0.026,0.064
10.992,-0.034,0.064
10.996,-0.042,0.064
11,-0.05,0.072
11.004,-0.054,0.064
11.008,-0.062,0.064
11.012,-0.07,0.072
11.016,-0.078,0.072
11.02,-0.086,0.072
11.024,-0.09,0.072
11.028,-0.098,0.08000001
11.032,-0.106,0.072
11.036,-0.114,0.072
11.04,-0.122,0.08000001
11.044,-0.126,0.08000001
11.048,-0.134,0.08000001
11.052,-0.142,0.072
11.056,-0.146,0.08000001
11.06,-0.154,0.08000001
11.064,-0.162,0.08000001
11.068,-0.17,0.072
11.072,-0.174,0.08000001
11.076,-0.182,0.08000001
11.08,-0.186,0.08000001
11.084,-0.19,0.08800001
11.088,-0.194,0.08000001
11.092,-0.198,0.08800001
11.096,-0.21,0.08000001
11.1,-0.214,0.08800001
11.104,-0.218,0.08000001
11.108,-0.218,0.08800001
11.112,-0.23,0.08000001
11.116,-0.23,0.08000001
11.12,-0.238,0.08000001
11.124,-0.242,0.08000001
11.128,-0.25,0.08000001
11.132,-0.25,0.08000001
11.136,-0.254,0.08000001
11.14,-0.258,0.08000001
11.144,-0.266,0.08000001
11.148,-0.266,0.08000001
11.152,-0.274,0.08000001
11.156,-0.27,0.08000001
11.16,-0.274,0.08000001
11.164,-0.278,0.072
11.168,-0.282,0.08000001
11.172,-0.286,0.08000001
11.176,-0.29,0.072
11.18,-0.29,0.08000001
11.184,-0.294,0.072
11.188,-0.29,0.08000001
11.192,-0.298,0.08000001
11.196,-0.298,0.072
11.2,-0.294,0.08000001
11.204,-0.298,0.072
11.208,-0.302,0.072
11.212,-0.302,0.072
11.216,-0.302,0.072
11.22,-0.298,0.072
11.224,-0.302,0.072
11.228,-0.306,0.064
11.232,-0.302,0.064
11.236,-0.302,0.072
11.24,-0.302,0.064
11.244,-0.298,0.072
11.248,-0.298,0.072
11.252,-0.294,0.064
11.256,-0.294,0.072
11.26,-0.294,0.072
11.264,-0.29,0.064
11.268,-0.286,0.072
11.272,-0.286,0.072
11.276,-0.282,0.072
11.28,-0.278,0.064
11.284,-0.278,0.064
11.288,-0.27,0.064
11.292,-0.266,0.056
11.296,-0.266,0.064
11.3,-0.262,0.056
11.304,-0.258,0.056
11.308,-0.254,0.056
11.312,-0.246,0.056
11.316,-0.242,0.056
11.32,-0.242,0.056
11.324,-0.238,0.064
11.328,-0.226,0.056
11.332,-0.222,0.056
11.336,-0.222,0.056
11.34,-0.214,0.056
11.344,-0.206,0.056
11.348,-0.202,0.048
11.352,-0.194,0.048
11.356,-0.19,0.056
11.36,-0.186,0.048
11.364,-0.186,0.048
11.368,-0.174,0.04
11.372,-0.174,0.048
11.376,-0.162,0.048
11.38,-0.154,0.04
11.384,-0.15,0.048
11.388,-0.142,0.048
11.392,-0.134,0.04
11.396,-0.13,0.04
11.4,-0.122,0.032
11.404,-0.114,0.04
11.408,-0.11,0.04
11.412,-0.102,0.032
11.416,-0.094,0.04
11.42,-0.086,0.04
11.424,-0.078,0.032
11.428,-0.07,0.032
11.432,-0.062,0.032
11.436,-0.058,0.032
11.44,-0.05,0.024
11.444,-0.038,0.032
11.448,-0.03,0.032
11.452,-0.026,0.032
11.456,-0.018,0.024
11.46,-0.006,0.024
11.464,-0.002,0.024
11.468,0.006,0.024
11.472,0.014,0.016
11.476,0.022,0.024
11.48,0.03,0.016
11.484,0.038,0.016
11.488,0.046,0.016
11.492,0.05,0.008
11.496,0.062,0.008
11.5,0.066,0.016
11.504,0.07,0.016
11.508,0.078,0.008
11.512,0.086,0.008
11.516,0.094,0.008
11.52,0.102,0
11.524,0.106,0
11.528,0.114,0
11.532,0.122,0
11.536,0.13,-0.008
11.54,0.134,0
11.544,0.142,-0.008
11.548,0.15,-0.008
11.552,0.154,-0.008
11.556,0.158,-0.008
11.56,0.166,-0.016
11.564,0.17,-0.016
11.568,0.174,-0.016
11.572,0.182,-0.024
11.576,0.194,-0.024
11.58,0.198,-0.016
11.584,0.202,-0.024
11.588,0.202,-0.024
11.592,0.21,-0.024
11.596,0.214,-0.024
11.6,0.222,-0.024
11.604,0.226,-0.024
11.608,0.23,-0.032
11.612,0.234,-0.04
11.616,0.238,-0.032
11.62,0.246,-0.032
11.624,0.246,-0.032
11.628,0.25,-0.032
11.632,0.25,-0.04
11.636,0.254,-0.04
11.64,0.258,-0.04
11.644,0.258,-0.04
11.648,0.266,-0.048
11.652,0.27,-0.048
11.656,0.27,-0.048
11.66,0.27,-0.048
11.664,0.278,-0.048
11.668,0.274,-0.048
11.672,0.282,-0.056
11.676,0.282,-0.064
11.68,0.282,-0.056
11.684,0.282,-0.064
11.688,0.282,-0.064
11.692,0.286,-0.064
11.696,0.286,-0.056
11.7,0.286,-0.064
11.704,0.29,-0.064
11.708,0.286,-0.072
11.712,0.286,-0.072
11.716,0.286,-0.072
11.72,0.282,-0.072
11.724,0.286,-0.072
11.728,0.282,-0.08000001
11.732,0.286,-0.08000001
11.736,0.286,-0.08000001
11.74,0.282,-0.08000001
11.744,0.282,-0.08800001
11.748,0.282,-0.08800001
11.752,0.282,-0.08000001
11.756,0.278,-0.08800001
11.76,0.274,-0.08800001
11.764,0.274,-0.096
11.768,0.27,-0.096
11.772,0.27,-0.096
11.776,0.266,-0.08800001
11.78,0.266,-0.08800001
11.784,0.262,-0.096
11.788,0.262,-0.104
11.792,0.258,-0.096
11.796,0.25,-0.096
11.8,0.246,-0.104
11.804,0.246,-0.104
11.808,0.242,-0.104
11.812,0.238,-0.104
11.816,0.234,-0.104
11.82,0.23,-0.104
11.824,0.222,-0.104
11.828,0.222,-0.104
11.832,0.214,-0.112
11.836,0.206,-0.112
11.84,0.202,-0.104
11.844,0.202,-0.104
11.848,0.198,-0.104
11.852,0.19,-0.104
11.856,0.19,-0.112
11.86,0.178,-0.104
11.864,0.174,-0.104
11.868,0.17,-0.104
11.872,0.166,-0.112
11.876,0.158,-0.112
11.88,0.15,-0.112
11.884,0.146,-0.12
11.888,0.142,-0.112
11.892,0.134,-0.112
11.896,0.126,-0.112
11.9,0.122,-0.112
11.904,0.114,-0.112
11.908,0.106,-0.112
11.912,0.102,-0.12
11.916,0.094,-0.112
11.92,0.086,-0.104
11.924,0.082,-0.104
11.928,0.074,-0.112
11.932,0.066,-0.112
11.936,0.058,-0.112
11.94,0.054,-0.104
11.944,0.05,-0.104
11.948,0.046,-0.104
11.952,0.034,-0.112
11.956,0.03,-0.104
11.96,0.018,-0.112
11.964,0.014,-0.104
11.968,0.006,-0.104
11.972,-0.002,-0.096
11.976,-0.01,-0.096
11.98,-0.014,-0.096
11.984,-0.022,-0.096
11.988,-0.03,-0.104
11.992,-0.038,-0.096
11.996,-0.042,-0.08800001
12,-0.046,-0.08800001
12.004,-0.058,-0.096
12.008,-0.062,-0.08000001
12.012,-0.07,-0.08800001
12.016,-0.074,-0.08000001
12.02,-0.082,-0.08000001
12.024,-0.09,-0.08000001
12.028,-0.098,-0.072
12.032,-0.106,-0.072
12.036,-0.11,-0.072
12.04,-0.114,-0.064
12.044,-0.122,-0.072
12.048,-0.13,-0.064
12.052,-0.138,-0.056
12.056,-0.142,-0.056
12.06,-0.146,-0.056
12.064,-0.154,-0.056
12.068,-0.158,-0.056
12.072,-0.162,-0.056
12.076,-0.17,-0.056
12.08,-0.178,-0.048
12.084,-0.178,-0.04
12.088,-0.182,-0.04
12.092,-0.186,-0.032
12.096,-0.19,-0.032
12.1,-0.194,-0.032
12.104,-0.202,-0.024
12.108,-0.202,-0.032
12.112,-0.21,-0.032
12.116,-0.21,-0.024
12.12,-0.214,-0.016
12.124,-0.222,-0.016
12.128,-0.222,-0.016
12.132,-0.226,-0.008
12.136,-0.23,-0.008
12.14,-0.23,0
12.144,-0.234,0.008
12.148,-0.238,0
12.152,-0.242,0.008
12.156,-0.242,0.016
12.16,-0.246,0.016
12.164,-0.246,0.016
12.168,-0.254,0.024
12.172,-0.254,0.032
12.176,-0.25,0.032
12.18,-0.254,0.032
12.184,-0.254,0.032
12.188,-0.258,0.04
12.192,-0.258,0.048
12.196,-0.258,0.04
12.2,-0.254,0.056
12.204,-0.258,0.048
12.208,-0.254,0.056
12.212,-0.258,0.064
12.216,-0.258,0.056
12.22,-0.258,0.064
12.224,-0.254,0.08000001
12.228,-0.258,0.08000001
12.232,-0.254,0.08000001
12.236,-0.254,0.08000001
12.24,-0.25,0.08800001
12.244,-0.254,0.08800001
12.248,-0.25,0.08800001
12.252,-0.246,0.08800001
12.256,-0.25,0.096
12.26,-0.242,0.096
12.264,-0.242,0.096
12.268,-0.238,0.104
12.272,-0.234,0.112
12.276,-0.234,0.112
12.28,-0.234,0.112
12.284,-0.23,0.112
12.288,-0.226,0.12
12.292,-0.218,0.12
12.296,-0.218,0.12
12.3,-0.214,0.128
12.304,-0.214,0.136
12.308,-0.206,0.128
12.312,-0.198,0.128
12.316,-0.198,0.144
12.32,-0.198,0.144
12.324,-0.19,0.144
12.328,-0.186,0.144
12.332,-0.186,0.144
12.336,-0.178,0.152
12.34,-0.174,0.152
12.344,-0.17,0.152
12.348,-0.166,0.152
12.352,-0.158,0.152
12.356,-0.154,0.152
12.36,-0.146,0.152
12.364,-0.142,0.16
12.368,-0.138,0.16
12.372,-0.134,0.16
12.376,-0.126,0.168
12.38,-0.122,0.16
12.384,-0.118,0.168
12.388,-0.106,0.16
12.392,-0.106,0.168
12.396,-0.098,0.168
12.4,-0.09,0.168
12.404,-0.086,0.168
12.408,-0.082,0.168
12.412,-0.074,0.168
12.416,-0.066,0.176
12.42,-0.062,0.176
12.424,-0.058,0.168
12.428,-0.046,0.168
12.432,-0.042,0.168
12.436,-0.038,0.168
12.44,-0.03,0.168
12.444,-0.026,0.168
12.448,-0.018,0.168
12.452,-0.014,0.16
12.456,-0.01,0.168
12.46,-0.002,0.16
12.464,0.006,0.16
12.468,0.006,0.168
12.472,0.014,0.168
12.476,0.022,0.168
12.48,0.026,0.16
12.484,0.034,0.16
12.488,0.042,0.16
12.492,0.05,0.16
12.496,0.05,0.152
12.5,0.054,0.16
12.504,0.062,0.152
12.508,0.066,0.152
12.512,0.07,0.144
12.516,0.074,0.144
12.52,0.078,0.144
12.524,0.086,0.136
12.528,0.09,0.128
12.532,0.094,0.128
12.536,0.102,0.136
12.54,0.106,0.12
12.544,0.11,0.12
12.548,0.114,0.12
12.552,0.118,0.12
12.556,0.122,0.112
12.56,0.13,0.112
12.564,0.134,0.104
12.568,0.134,0.104
12.572,0.138,0.096
12.576,0.146,0.096
12.58,0.146,0.096
12.584,0.154,0.08800001
12.588,0.154,0.08800001
12.592,0.158,0.08000001
12.596,0.162,0.08800001
12.6,0.166,0.072
12.604,0.17,0.072
12.608,0.174,0.064
12.612,0.174,0.064
12.616,0.178,0.056
12.62,0.178,0.056
12.624,0.182,0.056
12.628,0.186,0.048
12.632,0.186,0.04
12.636,0.186,0.04
12.64,0.19,0.032
12.644,0.194,0.032
12.648,0.198,0.024
12.652,0.194,0.016
12.656,0.198,0.008
12.66,0.198,0
12.664,0.198,0
12.668,0.198,0
12.672,0.202,-0.008
12.676,0.202,-0.008
12.68,0.202,-0.024
12.684,0.202,-0.024
12.688,0.202,-0.032
12.692,0.202,-0.032
12.696,0.206,-0.032
12.7,0.202,-0.04
12.704,0.202,-0.048
12.708,0.202,-0.048
12.712,0.202,-0.056
12.716,0.206,-0.064
12.72,0.202,-0.064
12.724,0.206,-0.072
12.728,0.202,-0.072
12.732,0.198,-0.08000001
12.736,0.198,-0.08800001
12.74,0.198,-0.08800001
12.744,0.198,-0.096
12.748,0.194,-0.112
12.752,0.19,-0.104
12.756,0.194,-0.112
12.76,0.194,-0.112
12.764,0.186,-0.12
12.768,0.19,-0.12
12.772,0.186,-0.128
12.776,0.182,-0.136
12.78,0.178,-0.136
12.784,0.178,-0.144
12.788,0.174,-0.152
12.792,0.17,-0.152
12.796,0.17,-0.152
12.8,0.166,-0.16
12.804,0.166,-0.16
12.808,0.158,-0.168
12.812,0.158,-0.176
12.816,0.158,-0.176
12.82,0.15,-0.176
12.824,0.146,-0.176
12.828,0.146,-0.184
12.832,0.142,-0.184
12.836,0.138,-0.192
12.84,0.134,-0.192
12.844,0.13,-0.192
12.848,0.13,-0.208
12.852,0.126,-0.2
12.856,0.122,-0.2
12.86,0.118,-0.2
12.864,0.114,-0.208
12.868,0.11,-0.208
12.872,0.106,-0.208
12.876,0.102,-0.216
12.88,0.094,-0.216
12.884,0.094,-0.216
12.888,0.09,-0.224
12.892,0.086,-0.224
12.896,0.082,-0.224
12.9,0.078,-0.232
12.904,0.074,-0.224
12.908,0.07,-0.224
12.912,0.066,-0.232
12.916,0.058,-0.232
12.92,0.058,-0.232
12.924,0.054,-0.232
12.928,0.05,-0.224
12.932,0.042,-0.232
12.936,0.046,-0.224
12.94,0.038,-0.232
12.944,0.03,-0.232
12.948,0.026,-0.232
12.952,0.022,-0.232
12.956,0.018,-0.232
12.96,0.014,-0.224
12.964,0.01,-0.232
12.968,0.006,-0.224
12.972,0.006,-0.224
12.976,0.002,-0.224
12.98,-0.002,-0.224
12.984,-0.006,-0.216
12.988,-0.014,-0.216
12.992,-0.018,-0.216
12.996,-0.022,-0.216
13,-0.026,-0.208
13.004,-0.03,-0.208
13.008,-0.034,-0.208
13.012,-0.034,-0.208
13.016,-0.042,-0.2
13.02,-0.042,-0.2
13.024,-0.046,-0.2
13.028,-0.05,-0.192
13.032,-0.054,-0.192
13.036,-0.062,-0.192
13.04,-0.058,-0.176
13.044,-0.062,-0.184
13.048,-0.066,-0.168
13.052,-0.07,-0.168
13.056,-0.074,-0.168
13.06,-0.074,-0.168
13.064,-0.078,-0.16
13.068,-0.082,-0.168
13.072,-0.082,-0.152
13.076,-0.086,-0.144
13.08,-0.09,-0.144
13.084,-0.09,-0.144
13.088,-0.094,-0.144
13.092,-0.098,-0.128
13.096,-0.102,-0.128
13.1,-0.098,-0.12
13.104,-0.102,-0.12
13.108,-0.106,-0.12
13.112,-0.106,-0.112
13.116,-0.106,-0.096
13.12,-0.11,-0.104
13.124,-0.11,-0.08800001
13.128,-0.114,-0.072
13.132,-0.114,-0.08000001
13.136,-0.114,-0.072
13.14,-0.118,-0.064
13.144,-0.118,-0.056
13.148,-0.118,-0.056
13.152,-0.118,-0.048
13.156,-0.118,-0.04
13.16,-0.122,-0.04
13.164,-0.122,-0.032
13.168,-0.126,-0.024
13.172,-0.122,-0.024
13.176,-0.122,-0.016
13.18,-0.122,-0.008
13.184,-0.122,0
13.188,-0.122,0.008
13.192,-0.122,0.016
13.196,-0.126,0.024
13.2,-0.122,0.024
13.204,-0.122,0.024
13.208,-0.122,0.048
13.212,-0.122,0.04
13.216,-0.122,0.048
13.22,-0.122,0.056
13.224,-0.118,0.064
13.228,-0.118,0.064
13.232,-0.114,0.08000001
13.236,-0.114,0.08000001
13.24,-0.114,0.08800001
13.244,-0.114,0.08800001
13.248,-0.114,0.096
13.252,-0.114,0.104
13.256,-0.114,0.112
13.26,-0.106,0.104
13.264,-0.11,0.12
13.268,-0.11,0.112
13.272,-0.106,0.128
13.276,-0.106,0.136
13.28,-0.106,0.128
13.284,-0.102,0.144
13.288,-0.102,0.144
13.292,-0.098,0.16
13.296,-0.098,0.16
13.3,-0.094,0.16
13.304,-0.09,0.168
13.308,-0.086,0.168
13.312,-0.086,0.176
13.316,-0.082,0.176
13.32,-0.082,0.192
13.324,-0.082,0.192
13.328,-0.078,0.192
13.332,-0.078,0.2
13.336,-0.074,0.192
13.34,-0.074,0.208
13.344,-0.066,0.216
13.348,-0.07,0.208
13.352,-0.066,0.208
13.356,-0.062,0.216
13.36,-0.062,0.216
13.364,-0.058,0.224
13.368,-0.058,0.224
13.372,-0.054,0.232
13.376,-0.054,0.232
13.38,-0.054,0.24
13.384,-0.05,0.24
13.388,-0.046,0.232
13.392,-0.042,0.24
13.396,-0.042,0.24
13.4,-0.038,0.24
13.404,-0.034,0.248
13.408,-0.034,0.24
13.412,-0.03,0.248
13.416,-0.03,0.256
13.42,-0.026,0.256
13.424,-0.022,0.256
13.428,-0.022,0.256
13.432,-0.022,0.256
13.436,-0.018,0.256
13.44,-0.018,0.256
13.444,-0.014,0.248
13.448,-0.006,0.248
13.452,-0.01,0.248
13.456,-0.002,0.256
13.46,-0.006,0.256
13.464,-0.002,0.248
13.468,0.002,0.248
13.472,0.006,0.248
13.476,0.006,0.256
13.48,0.006,0.248
13.484,0.01,0.24
13.488,0.01,0.248
13.492,0.01,0.248
13.496,0.014,0.24
13.5,0.018,0.232
13.504,0.018,0.24
13.508,0.018,0.232
13.512,0.022,0.24
13.516,0.022,0.224
13.52,0.022,0.224
13.524,0.026,0.224
13.528,0.026,0.216
13.532,0.03,0.216
13.536,0.03,0.216
13.54,0.03,0.208
13.544,0.03,0.208
13.548,0.034,0.2
13.552,0.038,0.2
13.556,0.038,0.192
13.56,0.034,0.184
13.564,0.038,0.184
13.568,0.042,0.176
13.572,0.042,0.176
13.576,0.042,0.168
13.58,0.042,0.168
13.584,0.042,0.16
13.588,0.042,0.16
13.592,0.046,0.152
13.596,0.046,0.144
13.6,0.046,0.144
13.604,0.046,0.128
13.608,0.046,0.128
13.612,0.046,0.128
13.616,0.046,0.112
13.62,0.046,0.112
13.624,0.05,0.104
13.628,0.046,0.104
13.632,0.05,0.096
13.636,0.05,0.08800001
13.64,0.046,0.08000001
13.644,0.046,0.08800001
13.648,0.054,0.08000001
13.652,0.05,0.072
13.656,0.046,0.064
13.66,0.05,0.056
13.664,0.05,0.048
13.668,0.05,0.04
13.672,0.05,0.032
13.676,0.05,0.024
13.68,0.046,0.016
13.684,0.05,0.016
13.688,0.046,0.008
13.692,0.046,0
13.696,0.046,-0.008
13.7,0.046,-0.008
13.704,0.05,-0.024
13.708,0.05,-0.032
13.712,0.046,-0.032
13.716,0.042,-0.04
13.72,0.046,-0.048
13.724,0.046,-0.048
13.728,0.042,-0.056
13.732,0.042,-0.064
13.736,0.042,-0.064
13.74,0.042,-0.08000001
13.744,0.042,-0.08000001
13.748,0.038,-0.096
13.752,0.042,-0.096
13.756,0.038,-0.104
13.76,0.038,-0.104
13.764,0.038,-0.12
13.768,0.038,-0.128
13.772,0.038,-0.128
13.776,0.038,-0.136
13.78,0.034,-0.144
13.784,0.038,-0.144
13.788,0.038,-0.152
13.792,0.034,-0.152
13.796,0.034,-0.168
13.8,0.034,-0.176
13.804,0.03,-0.176
13.808,0.03,-0.176
13.812,0.034,-0.184
13.816,0.03,-0.192
13.82,0.03,-0.192
13.824,0.03,-0.2
13.828,0.026,-0.2
13.832,0.03,-0.2
13.836,0.03,-0.208
13.84,0.03,-0.216
13.844,0.026,-0.216
13.848,0.026,-0.224
13.852,0.022,-0.224
13.856,0.026,-0.224
13.86,0.022,-0.24
13.864,0.026,-0.232
13.868,0.022,-0.248
13.872,0.026,-0.248
13.876,0.022,-0.248
13.88,0.026,-0.248
13.884,0.022,-0.248
13.888,0.022,-0.256
13.892,0.022,-0.264
13.896,0.022,-0.264
13.9,0.022,-0.264
13.904,0.022,-0.264
13.908,0.022,-0.264
13.912,0.022,-0.272
13.916,0.022,-0.272
13.92,0.022,-0.272
13.924,0.022,-0.264
13.928,0.022,-0.272
13.932,0.022,-0.272
13.936,0.022,-0.272
13.94,0.018,-0.272
13.944,0.022,-0.272
13.948,0.018,-0.272
13.952,0.022,-0.272
13.956,0.018,-0.272
13.96,0.022,-0.272
13.964,0.026,-0.272
13.968,0.022,-0.264
13.972,0.022,-0.272
13.976,0.022,-0.272
13.98,0.022,-0.272
13.984,0.022,-0.272
13.988,0.022,-0.264
13.992,0.022,-0.256
13.996,0.026,-0.264
14,0.026,-0.264
14.004,0.026,-0.256
14.008,0.026,-0.248
14.012,0.026,-0.248
14.016,0.022,-0.256
14.02,0.03,-0.256
14.024,0.03,-0.24
14.028,0.03,-0.24
14.032,0.03,-0.232
14.036,0.026,-0.232
14.04,0.03,-0.232
14.044,0.03,-0.224
14.048,0.034,-0.224
14.052,0.03,-0.216
14.056,0.034,-0.216
14.06,0.034,-0.216
14.064,0.034,-0.2
14.068,0.034,-0.2
14.072,0.034,-0.192
14.076,0.038,-0.192
14.08,0.038,-0.192
14.084,0.038,-0.184
14.088,0.038,-0.176
14.092,0.038,-0.168
14.096,0.042,-0.168
14.1,0.042,-0.16
14.104,0.042,-0.152
14.108,0.042,-0.152
14.112,0.042,-0.152
14.116,0.042,-0.144
14.12,0.042,-0.136
14.124,0.042,-0.128
14.128,0.046,-0.12
14.132,0.046,-0.12
14.136,0.046,-0.112
14.14,0.05,-0.112
14.144,0.05,-0.096
14.148,0.046,-0.096
14.152,0.05,-0.08800001
14.156,0.05,-0.08000001
14.16,0.05,-0.064
14.164,0.05,-0.064
14.168,0.05,-0.064
14.172,0.054,-0.056
14.176,0.05,-0.04
14.18,0.054,-0.04
14.184,0.054,-0.032
14.188,0.054,-0.024
14.192,0.054,-0.024
14.196,0.054,-0.008
14.2,0.054,-0.008
14.204,0.054,0
14.208,0.054,0
14.212,0.054,0.016
14.216,0.054,0.016
14.22,0.058,0.032
14.224,0.054,0.032
14.228,0.058,0.04
14.232,0.054,0.048
14.236,0.054,0.056
14.24,0.054,0.064
14.244,0.058,0.064
14.248,0.054,0.064
14.252,0.054,0.072
14.256,0.058,0.08000001
14.26,0.054,0.096
14.264,0.054,0.096
14.268,0.054,0.104
14.272,0.058,0.112
14.276,0.05,0.104
14.28,0.054,0.12
14.284,0.05,0.12
14.288,0.05,0.128
14.292,0.05,0.136
14.296,0.046,0.136
14.3,0.05,0.136
14.304,0.046,0.144
14.308,0.05,0.152
14.312,0.046,0.152
14.316,0.05,0.16
14.32,0.042,0.168
14.324,0.042,0.176
14.328,0.042,0.176
14.332,0.038,0.184
14.336,0.042,0.184
14.34,0.042,0.184
14.344,0.038,0.192
14.348,0.038,0.192
14.352,0.034,0.2
14.356,0.03,0.2
14.36,0.03,0.208
14.364,0.03,0.208
14.368,0.03,0.216
14.372,0.026,0.216
14.376,0.026,0.216
14.38,0.022,0.224
14.384,0.018,0.224
14.388,0.018,0.232
14.392,0.014,0.224
14.396,0.014,0.24
14.4,0.014,0.232
14.404,0.014,0.24
14.408,0.014,0.248
14.412,0.006,0.24
14.416,0.006,0.24
14.42,0.006,0.24
14.424,0.006,0.24
14.428,-0.002,0.248
14.432,-0.006,0.248
14.436,-0.01,0.24
14.44,-0.01,0.248
14.444,-0.01,0.248
14.448,-0.014,0.248
14.452,-0.014,0.248
14.456,-0.018,0.24
14.46,-0.022,0.248
14.464,-0.022,0.256
14.468,-0.03,0.248
14.472,-0.03,0.248
14.476,-0.03,0.24
14.48,-0.038,0.248
14.484,-0.038,0.248
14.488,-0.038,0.24
14.492,-0.042,0.24
14.496,-0.042,0.248
14.5,-0.046,0.24
14.504,-0.046,0.232
14.508,-0.05,0.232
14.512,-0.054,0.232
14.516,-0.054,0.232
14.52,-0.058,0.224
14.524,-0.058,0.232
14.528,-0.066,0.232
14.532,-0.066,0.224
14.536,-0.066,0.216
14.54,-0.07,0.216
14.544,-0.074,0.216
14.548,-0.074,0.208
14.552,-0.074,0.208
14.556,-0.078,0.208
14.56,-0.078,0.2
14.564,-0.082,0.192
14.568,-0.086,0.192
14.572,-0.086,0.184
14.576,-0.09,0.184
14.58,-0.094,0.176
14.584,-0.098,0.176
14.588,-0.094,0.168
14.592,-0.098,0.16
14.596,-0.102,0.16
14.6,-0.102,0.16
14.604,-0.106,0.144
14.608,-0.106,0.144
14.612,-0.106,0.136
14.616,-0.11,0.136
14.62,-0.11,0.136
14.624,-0.11,0.12
14.628,-0.114,0.12
14.632,-0.114,0.12
14.636,-0.122,0.112
14.64,-0.122,0.104
14.644,-0.122,0.096
14.648,-0.122,0.096
14.652,-0.122,0.08800001
14.656,-0.126,0.08800001
14.66,-0.122,0.08000001
14.664,-0.126,0.072
14.668,-0.126,0.072
14.672,-0.126,0.056
14.676,-0.126,0.056
14.68,-0.13,0.048
14.684,-0.126,0.048
14.688,-0.134,0.048
14.692,-0.13,0.024
14.696,-0.13,0.024
14.7,-0.134,0.016
14.704,-0.13,0.016
14.708,-0.13,0.008
14.712,-0.134,0
14.716,-0.13,-0.008
14.72,-0.13,-0.008
14.724,-0.126,-0.016
14.728,-0.13,-0.016
14.732,-0.126,-0.024
14.736,-0.13,-0.032
14.74,-0.126,-0.032
14.744,-0.126,-0.048
14.748,-0.126,-0.048
14.752,-0.126,-0.056
14.756,-0.122,-0.056
14.76,-0.122,-0.072
14.764,-0.118,-0.08000001
14.768,-0.118,-0.08000001
14.772,-0.118,-0.08800001
14.776,-0.118,-0.096
14.78,-0.11,-0.096
14.784,-0.114,-0.104
14.788,-0.11,-0.104
14.792,-0.106,-0.112
14.796,-0.106,-0.112
14.8,-0.102,-0.128
14.804,-0.102,-0.12
14.808,-0.094,-0.128
14.812,-0.098,-0.136
14.816,-0.094,-0.144
14.82,-0.094,-0.144
14.824,-0.09,-0.144
14.828,-0.086,-0.152
14.832,-0.086,-0.16
14.836,-0.078,-0.16
14.84,-0.078,-0.168
14.844,-0.074,-0.168
14.848,-0.07,-0.168
14.852,-0.066,-0.168
14.856,-0.062,-0.176
14.86,-0.058,-0.184
14.864,-0.058,-0.176
14.868,-0.054,-0.184
14.872,-0.05,-0.192
14.876,-0.05,-0.192
14.88,-0.042,-0.2
14.884,-0.038,-0.192
14.888,-0.038,-0.2
14.892,-0.034,-0.192
14.896,-0.03,-0.208
14.9,-0.018,-0.208
14.904,-0.018,-0.208
14.908,-0.014,-0.208
14.912,-0.006,-0.216
14.916,-0.006,-0.208
14.92,0.002,-0.216
14.924,0.002,-0.216
14.928,0.01,-0.216
14.932,0.014,-0.216
14.936,0.018,-0.216
14.94,0.022,-0.224
14.944,0.026,-0.216
14.948,0.03,-0.224
14.952,0.03,-0.224
14.956,0.038,-0.224
14.96,0.042,-0.224
14.964,0.046,-0.216
14.968,0.05,-0.224
14.972,0.054,-0.216
14.976,0.058,-0.224
14.98,0.062,-0.216
14.984,0.066,-0.224
14.988,0.066,-0.216
14.992,0.074,-0.216
14.996,0.078,-0.216
15,0.082,-0.216
15.004,0.086,-0.216
15.008,0.09,-0.216
15.012,0.094,-0.208
15.016,0.098,-0.208
15.02,0.106,-0.2
15.024,0.106,-0.2
15.028,0.114,-0.2
15.032,0.114,-0.2
15.036,0.118,-0.192
15.04,0.122,-0.192
15.044,0.13,-0.192
15.048,0.13,-0.192
15.052,0.134,-0.184
15.056,0.138,-0.184
15.06,0.142,-0.184
15.064,0.146,-0.184
15.068,0.146,-0.176
15.072,0.15,-0.168
15.076,0.154,-0.168
15.08,0.158,-0.168
15.084,0.162,-0.16
15.088,0.162,-0.152
15.092,0.166,-0.16
15.096,0.17,-0.152
15.1,0.174,-0.152
15.104,0.174,-0.152
15.108,0.178,-0.144
15.112,0.178,-0.136
15.116,0.182,-0.144
15.12,0.182,-0.136
15.124,0.186,-0.128
15.128,0.19,-0.12
15.132,0.19,-0.112
15.136,0.19,-0.112
15.14,0.194,-0.112
15.144,0.194,-0.104
15.148,0.194,-0.096
15.152,0.198,-0.096
15.156,0.198,-0.08800001
15.16,0.198,-0.08800001
15.164,0.198,-0.08000001
15.168,0.202,-0.08000001
15.172,0.202,-0.072
15.176,0.202,-0.064
15.18,0.198,-0.064
15.184,0.202,-0.056
15.188,0.206,-0.056
15.192,0.198,-0.048
15.196,0.198,-0.048
15.2,0.202,-0.04
15.204,0.202,-0.04
15.208,0.202,-0.032
15.212,0.198,-0.024
15.216,0.202,-0.024
15.22,0.202,-0.016
15.224,0.198,-0.008
15.228,0.198,-0.008
15.232,0.194,0
15.236,0.198,0.008
15.24,0.194,0.008
15.244,0.19,0.008
15.248,0.194,0.024
15.252,0.186,0.024
15.256,0.19,0.032
15.26,0.186,0.032
15.264,0.182,0.04
15.268,0.182,0.04
15.272,0.178,0.04
15.276,0.174,0.048
15.28,0.174,0.056
15.284,0.17,0.064
15.288,0.17,0.056
15.292,0.162,0.072
15.296,0.166,0.064
15.3,0.158,0.08000001
15.304,0.154,0.072
15.308,0.15,0.08800001
15.312,0.146,0.08000001
15.316,0.142,0.08800001
15.32,0.142,0.096
15.324,0.134,0.096
15.328,0.13,0.096
15.332,0.13,0.096
15.336,0.122,0.104
15.34,0.122,0.104
15.344,0.114,0.112
15.348,0.11,0.104
15.352,0.106,0.12
15.356,0.098,0.112
15.36,0.09,0.112
15.364,0.09,0.12
15.368,0.086,0.128
15.372,0.082,0.128
15.376,0.078,0.128
15.38,0.07,0.136
15.384,0.07,0.136
15.388,0.062,0.136
15.392,0.058,0.136
15.396,0.054,0.144
15.4,0.046,0.144
15.404,0.042,0.136
15.408,0.034,0.144
15.412,0.03,0.152
15.416,0.022,0.152
15.42,0.018,0.144
15.424,0.01,0.152
15.428,0.002,0.152
15.432,-0.002,0.152
15.436,-0.006,0.152
15.44,-0.01,0.152
15.444,-0.022,0.16
15.448,-0.022,0.152
15.452,-0.03,0.152
15.456,-0.034,0.16
15.46,-0.042,0.152
15.464,-0.05,0.16
15.468,-0.054,0.16
15.472,-0.062,0.16
15.476,-0.066,0.16
15.48,-0.074,0.16
15.484,-0.078,0.16
15.488,-0.082,0.16
15.492,-0.086,0.152
15.496,-0.094,0.16
15.5,-0.106,0.16
15.504,-0.106,0.16
15.508,-0.114,0.152
15.512,-0.114,0.16
15.516,-0.126,0.152
15.52,-0.13,0.152
15.524,-0.134,0.16
15.528,-0.142,0.152
15.532,-0.142,0.152
15.536,-0.15,0.152
15.54,-0.154,0.152
15.544,-0.162,0.152
15.548,-0.17,0.152
15.552,-0.174,0.152
15.556,-0.178,0.144
15.56,-0.182,0.136
15.564,-0.182,0.136
15.568,-0.186,0.136
15.572,-0.19,0.136
15.576,-0.194,0.128
15.58,-0.198,0.136
15.584,-0.202,0.136
15.588,-0.206,0.128
15.592,-0.21,0.12
15.596,-0.214,0.128
15.6,-0.218,0.12
15.604,-0.222,0.128
15.608,-0.222,0.112
15.612,-0.23,0.112
15.616,-0.23,0.112
15.62,-0.23,0.112
15.624,-0.234,0.104
15.628,-0.238,0.104
15.632,-0.242,0.096
15.636,-0.242,0.096
15.64,-0.246,0.096
15.644,-0.246,0.096
15.648,-0.25,0.08800001
15.652,-0.25,0.08800001
15.656,-0.25,0.08800001
15.66,-0.254,0.08000001
15.664,-0.254,0.08800001
15.668,-0.254,0.08000001
15.672,-0.254,0.072
15.676,-0.254,0.072
15.68,-0.254,0.072
15.684,-0.258,0.064
15.688,-0.254,0.064
15.692,-0.254,0.064
15.696,-0.254,0.056
15.7,-0.254,0.056
15.704,-0.254,0.048
15.708,-0.254,0.048
15.712,-0.25,0.048
15.716,-0.25,0.04
15.72,-0.25,0.032
15.724,-0.25,0.032
15.728,-0.246,0.032
15.732,-0.246,0.032
15.736,-0.246,0.016
15.74,-0.242,0.016
15.744,-0.234,0.016
15.748,-0.234,0.008
15.752,-0.23,0.008
15.756,-0.23,0.008
15.76,-0.226,0
15.764,-0.222,0
15.768,-0.222,0
15.772,-0.214,-0.008
15.776,-0.21,-0.008
15.78,-0.21,0
15.784,-0.206,-0.016
15.788,-0.202,-0.016
15.792,-0.19,-0.024
15.796,-0.19,-0.024
15.8,-0.186,-0.024
15.804,-0.186,-0.032
15.808,-0.178,-0.032
15.812,-0.178,-0.032
15.816,-0.174,-0.04
15.82,-0.166,-0.04
15.824,-0.158,-0.048
15.828,-0.154,-0.048
15.832,-0.15,-0.048
15.836,-0.142,-0.048
15.84,-0.134,-0.048
15.844,-0.134,-0.056
15.848,-0.126,-0.056
15.852,-0.122,-0.056
15.856,-0.114,-0.064
15.86,-0.106,-0.064
15.864,-0.102,-0.072
15.868,-0.094,-0.072
15.872,-0.086,-0.064
15.876,-0.082,-0.072
15.88,-0.074,-0.072
15.884,-0.07,-0.064
15.888,-0.062,-0.064
15.892,-0.058,-0.072
15.896,-0.05,-0.08000001
15.9,-0.042,-0.072
15.904,-0.034,-0.08000001
15.908,-0.03,-0.08000001
15.912,-0.018,-0.08000001
15.916,-0.01,-0.08000001
15.92,-0.002,-0.08000001
15.924,0.006,-0.08800001
15.928,0.006,-0.096
15.932,0.014,-0.08800001
15.936,0.018,-0.08800001
15.94,0.03,-0.096
15.944,0.038,-0.096
15.948,0.042,-0.096
15.952,0.05,-0.096
15.956,0.058,-0.096
15.96,0.062,-0.096
15.964,0.07,-0.08800001
15.968,0.078,-0.104
15.972,0.078,-0.096
15.976,0.09,-0.096
15.98,0.094,-0.104
15.984,0.102,-0.096
15.988,0.106,-0.104
15.992,0.114,-0.104
15.996,0.122,-0.096
16,0.13,-0.096
16.004,0.134,-0.104
16.008,0.138,-0.104
16.012,0.142,-0.096
16.016,0.154,-0.104
16.02,0.162,-0.104
16.024,0.166,-0.104
16.028,0.17,-0.096
16.032,0.17,-0.104
16.036,0.182,-0.096
16.04,0.182,-0.104
16.044,0.19,-0.104
16.048,0.194,-0.104
16.052,0.198,-0.104
16.056,0.202,-0.104
16.06,0.21,-0.096
16.064,0.214,-0.096
16.068,0.218,-0.096
16.072,0.222,-0.104
16.076,0.226,-0.096
16.08,0.23,-0.096
16.084,0.234,-0.096
16.088,0.238,-0.096
16.092,0.242,-0.096
16.096,0.246,-0.096
16.1,0.25,-0.08800001
16.104,0.25,-0.096
16.108,0.258,-0.096
16.112,0.258,-0.096
16.116,0.258,-0.096
16.12,0.262,-0.096
16.124,0.262,-0.08800001
16.128,0.266,-0.08000001
16.132,0.266,-0.08000001
16.136,0.27,-0.08000001
16.14,0.27,-0.08800001
16.144,0.27,-0.08800001
16.148,0.27,-0.08000001
16.152,0.274,-0.072
16.156,0.278,-0.072
16.16,0.274,-0.08000001
16.164,0.278,-0.08000001
16.168,0.278,-0.072
16.172,0.278,-0.072
16.176,0.278,-0.072
16.18,0.278,-0.064
16.184,0.274,-0.072
16.188,0.278,-0.072
16.192,0.278,-0.064
16.196,0.278,-0.072
16.2,0.278,-0.064
16.204,0.274,-0.064
16.208,0.27,-0.056
16.212,0.27,-0.056
16.216,0.274,-0.056
16.22,0.27,-0.064
16.224,0.266,-0.056
16.228,0.266,-0.056
16.232,0.266,-0.048
16.236,0.262,-0.048
16.24,0.258,-0.048
16.244,0.254,-0.048
16.248,0.25,-0.048
16.252,0.25,-0.048
16.256,0.25,-0.04
16.26,0.242,-0.048
16.264,0.238,-0.048
16.268,0.238,-0.04
16.272,0.234,-0.04
16.276,0.234,-0.04
16.28,0.226,-0.032
16.284,0.218,-0.04
16.288,0.218,-0.032
16.292,0.214,-0.032
16.296,0.206,-0.032
16.3,0.202,-0.032
16.304,0.198,-0.032
16.308,0.194,-0.024
16.312,0.186,-0.032
16.316,0.186,-0.024
16.32,0.182,-0.032
16.324,0.174,-0.024
16.328,0.17,-0.024
16.332,0.162,-0.016
16.336,0.154,-0.024
16.34,0.15,-0.024
16.344,0.142,-0.016
16.348,0.138,-0.016
16.352,0.134,-0.016
16.356,0.126,-0.016
16.36,0.118,-0.016
16.364,0.11,-0.008
16.368,0.106,-0.016
16.372,0.098,-0.008
16.376,0.094,-0.008
16.38,0.086,-0.008
16.384,0.078,-0.008
16.388,0.074,-0.008
16.392,0.066,-0.008
16.396,0.062,-0.008
16.4,0.054,0
16.404,0.046,0
16.408,0.042,0
16.412,0.034,0.008
16.416,0.026,0
16.42,0.018,0.008
16.424,0.01,0.008
16.428,0.002,0.008
16.432,-0.002,0.008
16.436,-0.01,0.008
16.44,-0.018,0.016
16.444,-0.026,0.008
16.448,-0.034,0.016
16.452,-0.042,0.016
16.456,-0.05,0.016
16.46,-0.054,0.024
16.464,-0.062,0.016
16.468,-0.07,0.016
16.472,-0.074,0.016
16.476,-0.086,0.024
16.48,-0.09,0.024
16.484,-0.098,0.024
16.488,-0.106,0.024
16.492,-0.114,0.024
16.496,-0.118,0.024
16.5,-0.122,0.032
16.504,-0.13,0.024
16.508,-0.138,0.032
16.512,-0.146,0.032
16.516,-0.15,0.032
16.52,-0.158,0.032
16.524,-0.166,0.04
16.528,-0.17,0.032
16.532,-0.174,0.04
16.536,-0.182,0.04
16.54,-0.186,0.032
16.544,-0.19,0.04
16.548,-0.198,0.04
16.552,-0.202,0.048
16.556,-0.206,0.04
16.56,-0.21,0.048
16.564,-0.214,0.048
16.568,-0.218,0.048
16.572,-0.23,0.056
16.576,-0.23,0.056
16.58,-0.234,0.048
16.584,-0.242,0.056
16.588,-0.242,0.048
16.592,-0.242,0.064
16.596,-0.254,0.056
16.6,-0.254,0.064
16.604,-0.258,0.056
16.608,-0.258,0.056
16.612,-0.262,0.056
16.616,-0.266,0.064
16.62,-0.274,0.056
16.624,-0.274,0.064
16.628,-0.278,0.064
16.632,-0.278,0.064
16.636,-0.278,0.072
16.64,-0.278,0.064
16.644,-0.282,0.072
16.648,-0.286,0.072
16.652,-0.286,0.064
16.656,-0.286,0.072
16.66,-0.29,0.072
16.664,-0.286,0.072
16.668,-0.286,0.072
16.672,-0.286,0.072
16.676,-0.286,0.08000001
16.68,-0.286,0.08000001
16.684,-0.282,0.08000001
16.688,-0.286,0.08000001
16.692,-0.286,0.08000001
16.696,-0.286,0.08000001
16.7,-0.278,0.072
16.704,-0.278,0.072
16.708,-0.278,0.072
16.712,-0.274,0.08000001
16.716,-0.274,0.08000001
16.72,-0.27,0.08000001
16.724,-0.266,0.08000001
16.728,-0.27,0.08800001
16.732,-0.266,0.08000001
16.736,-0.262,0.08800001
16.74,-0.258,0.08000001
16.744,-0.254,0.08000001
16.748,-0.25,0.08800001
16.752,-0.25,0.08000001
16.756,-0.246,0.08000001
16.76,-0.242,0.08000001
16.764,-0.234,0.08800001
16.768,-0.238,0.08800001
16.772,-0.226,0.08800001
16.776,-0.222,0.096
16.78,-0.222,0.08000001
16.784,-0.214,0.08800001
16.788,-0.214,0.08800001
16.792,-0.202,0.08800001
16.796,-0.198,0.08800001
16.8,-0.194,0.08000001
16.804,-0.19,0.08000001
16.808,-0.186,0.08800001
16.812,-0.182,0.08800001
16.816,-0.174,0.08800001
16.82,-0.17,0.08800001
16.824,-0.162,0.08800001
16.828,-0.158,0.08000001
16.832,-0.15,0.08800001
16.836,-0.146,0.08800001
16.84,-0.138,0.08800001
16.844,-0.134,0.08000001
16.848,-0.126,0.08800001
16.852,-0.122,0.08000001
16.856,-0.11,0.08000001
16.86,-0.106,0.08000001
16.864,-0.098,0.08800001
16.868,-0.09,0.08000001
16.872,-0.082,0.08000001
16.876,-0.078,0.08000001
16.88,-0.07,0.08000001
16.884,-0.062,0.08000001
16.888,-0.058,0.08000001
16.892,-0.05,0.08000001
16.896,-0.042,0.08000001
16.9,-0.038,0.08000001
16.904,-0.03,0.08000001
16.908,-0.022,0.08000001
16.912,-0.014,0.072
16.916,-0.006,0.064
16.92,0.002,0.072
16.924,0.006,0.064
16.928,0.014,0.064
16.932,0.018,0.072
16.936,0.03,0.064
16.94,0.034,0.064
16.944,0.042,0.064
16.948,0.05,0.064
16.952,0.058,0.056
16.956,0.066,0.056
16.96,0.07,0.064
16.964,0.078,0.064
16.968,0.082,0.056
16.972,0.086,0.056
16.976,0.094,0.056
16.98,0.098,0.056
16.984,0.106,0.048
16.988,0.114,0.048
16.992,0.118,0.048
16.996,0.126,0.048
17,0.13,0.04
17.004,0.134,0.04
17.008,0.138,0.04
17.012,0.15,0.032
17.016,0.154,0.032
17.02,0.158,0.024
17.024,0.162,0.024
17.028,0.166,0.024
17.032,0.174,0.024
17.036,0.178,0.024
17.04,0.182,0.016
17.044,0.19,0.016
17.048,0.194,0.008
17.052,0.198,0.008
17.056,0.202,0.008
17.06,0.206,0.008
17.064,0.206,0.008
17.068,0.21,0
17.072,0.218,-0.008
17.076,0.218,-0.008
17.08,0.222,-0.008
17.084,0.23,-0.016
17.088,0.23,-0.016
17.092,0.234,-0.008
17.096,0.234,-0.016
17.1,0.238,-0.024
17.104,0.242,-0.024
17.108,0.246,-0.024
17.112,0.246,-0.032
17.116,0.25,-0.032
17.12,0.25,-0.032
17.124,0.25,-0.032
17.128,0.254,-0.04
17.132,0.254,-0.04
17.136,0.254,-0.048
17.14,0.254,-0.04
17.144,0.25,-0.048
17.148,0.258,-0.048
17.152,0.258,-0.048
17.156,0.258,-0.064
17.16,0.258,-0.056
17.164,0.258,-0.064
17.168,0.258,-0.064
17.172,0.258,-0.072
17.176,0.258,-0.072
17.18,0.258,-0.072
17.184,0.254,-0.072
17.188,0.258,-0.08000001
17.192,0.258,-0.08800001
17.196,0.254,-0.08800001
17.2,0.25,-0.096
17.204,0.25,-0.096
17.208,0.25,-0.08800001
17.212,0.25,-0.096
17.216,0.246,-0.096
17.22,0.246,-0.096
17.224,0.242,-0.104
17.228,0.238,-0.112
17.232,0.238,-0.104
17.236,0.234,-0.112
17.24,0.234,-0.112
17.244,0.23,-0.112
17.248,0.226,-0.12
17.252,0.222,-0.12
17.256,0.218,-0.12
17.26,0.222,-0.12
17.264,0.214,-0.12
17.268,0.21,-0.128
17.272,0.202,-0.128
17.276,0.202,-0.136
17.28,0.198,-0.136
17.284,0.198,-0.128
17.288,0.19,-0.144
17.292,0.186,-0.136
17.296,0.186,-0.144
17.3,0.178,-0.136
17.304,0.174,-0.144
17.308,0.17,-0.144
17.312,0.166,-0.144
17.316,0.158,-0.144
17.32,0.15,-0.152
17.324,0.146,-0.144
17.328,0.142,-0.144
17.332,0.138,-0.152
17.336,0.134,-0.152
17.34,0.126,-0.152
17.344,0.118,-0.152
17.348,0.118,-0.152
17.352,0.11,-0.152
17.356,0.102,-0.144
17.36,0.098,-0.16
17.364,0.09,-0.152
17.368,0.086,-0.152
17.372,0.078,-0.152
17.376,0.074,-0.152
17.38,0.07,-0.144
17.384,0.066,-0.16
17.388,0.062,-0.152
17.392,0.054,-0.152
17.396,0.046,-0.152
17.4,0.042,-0.144
17.404,0.034,-0.152
17.408,0.03,-0.144
17.412,0.026,-0.144
17.416,0.018,-0.152
17.42,0.014,-0.144
17.424,0.006,-0.144
17.428,0.002,-0.144
17.432,-0.006,-0.144
17.436,-0.01,-0.144
17.44,-0.018,-0.144
17.444,-0.022,-0.136
17.448,-0.03,-0.144
17.452,-0.03,-0.136
17.456,-0.042,-0.136
17.46,-0.046,-0.128
17.464,-0.054,-0.128
17.468,-0.058,-0.128
17.472,-0.062,-0.12
17.476,-0.066,-0.12
17.48,-0.074,-0.12
17.484,-0.082,-0.12
17.488,-0.082,-0.112
17.492,-0.09,-0.112
17.496,-0.098,-0.104
17.5,-0.098,-0.112
17.504,-0.106,-0.112
17.508,-0.11,-0.104
17.512,-0.114,-0.096
17.516,-0.122,-0.096
17.52,-0.126,-0.08800001
17.524,-0.134,-0.08800001
17.528,-0.134,-0.08800001
17.532,-0.138,-0.08000001
17.536,-0.142,-0.08000001
17.54,-0.146,-0.072
17.544,-0.15,-0.072
17.548,-0.158,-0.072
17.552,-0.162,-0.064
17.556,-0.162,-0.056
17.56,-0.166,-0.056
17.564,-0.17,-0.056
17.568,-0.174,-0.048
17.572,-0.174,-0.04
17.576,-0.178,-0.04
17.58,-0.182,-0.032
17.584,-0.182,-0.032
17.588,-0.186,-0.024
17.592,-0.19,-0.024
17.596,-0.19,-0.016
17.6,-0.19,-0.016
17.604,-0.194,-0.008
17.608,-0.194,-0.008
17.612,-0.198,0
17.616,-0.198,0.008
17.62,-0.198,0.008
17.624,-0.198,0.016
17.628,-0.202,0.016
17.632,-0.202,0.016
17.636,-0.206,0.024
17.64,-0.206,0.032
17.644,-0.206,0.032
17.648,-0.206,0.04
17.652,-0.206,0.04
17.656,-0.206,0.048
17.66,-0.202,0.048
17.664,-0.206,0.056
17.668,-0.206,0.056
17.672,-0.206,0.064
17.676,-0.202,0.072
17.68,-0.21,0.072
17.684,-0.202,0.08000001
17.688,-0.202,0.072
17.692,-0.202,0.08000001
17.696,-0.198,0.08800001
17.7,-0.202,0.096
17.704,-0.198,0.096
17.708,-0.198,0.096
17.712,-0.194,0.096
17.716,-0.194,0.104
17.72,-0.19,0.112
17.724,-0.19,0.112
17.728,-0.186,0.112
17.732,-0.186,0.12
17.736,-0.186,0.12
17.74,-0.182,0.136
17.744,-0.178,0.128
17.748,-0.174,0.136
17.752,-0.17,0.136
17.756,-0.17,0.144
17.76,-0.166,0.144
17.764,-0.166,0.144
17.768,-0.162,0.152
17.772,-0.158,0.16
17.776,-0.154,0.16
17.78,-0.15,0.168
17.784,-0.146,0.168
17.788,-0.142,0.168
17.792,-0.142,0.168
17.796,-0.134,0.168
17.8,-0.13,0.168
17.804,-0.126,0.176
17.808,-0.122,0.176
17.812,-0.118,0.184
17.816,-0.118,0.184
17.82,-0.114,0.184
17.824,-0.11,0.184
17.828,-0.102,0.192
17.832,-0.098,0.192
17.836,-0.094,0.192
17.84,-0.086,0.192
17.844,-0.082,0.192
17.848,-0.074,0.192
17.852,-0.074,0.192
17.856,-0.066,0.192
17.86,-0.062,0.2
17.864,-0.062,0.192
17.868,-0.058,0.192
17.872,-0.05,0.2
17.876,-0.046,0.2
17.88,-0.042,0.2
17.884,-0.034,0.2
17.888,-0.034,0.2
17.892,-0.026,0.192
17.896,-0.022,0.192
17.9,-0.018,0.192
17.904,-0.014,0.2
17.908,-0.01,0.192
17.912,-0.006,0.192
17.916,-0.002,0.2
17.92,0.006,0.192
17.924,0.01,0.192
17.928,0.01,0.192
17.932,0.018,0.2
17.936,0.022,0.192
17.94,0.026,0.184
17.944,0.034,0.184
17.948,0.034,0.184
17.952,0.038,0.184
17.956,0.042,0.184
17.96,0.046,0.176
17.964,0.054,0.176
17.968,0.054,0.176
17.972,0.062,0.168
17.976,0.062,0.168
17.98,0.066,0.168
17.984,0.07,0.16
17.988,0.07,0.152
17.992,0.078,0.152
17.996,0.082,0.152
18,0.082,0.152
18.004,0.09,0.152
18.008,0.09,0.144
18.012,0.094,0.136
18.016,0.094,0.128
18.02,0.098,0.128
18.024,0.098,0.128
18.028,0.106,0.12
18.032,0.106,0.12
18.036,0.11,0.112
18.04,0.11,0.12
18.044,0.114,0.112
18.048,0.118,0.104
18.052,0.118,0.096
18.056,0.122,0.096
18.06,0.126,0.096
18.064,0.13,0.096
18.068,0.13,0.08000001
18.072,0.13,0.08000001
18.076,0.13,0.072
18.08,0.134,0.064
18.084,0.134,0.064
18.088,0.134,0.064
18.092,0.138,0.056
18.096,0.138,0.048
18.1,0.142,0.048
18.104,0.142,0.04
18.108,0.142,0.032
18.112,0.146,0.032
18.116,0.142,0.024
18.12,0.146,0.016
18.124,0.15,0.008
18.128,0.146,0.008
18.132,0.146,0
18.136,0.146,0
18.14,0.146,-0.016
18.144,0.146,-0.016
18.148,0.146,-0.016
18.152,0.15,-0.024
18.156,0.142,-0.04
18.16,0.15,-0.04
18.164,0.15,-0.048
18.168,0.146,-0.056
18.172,0.146,-0.056
18.176,0.146,-0.064
18.18,0.146,-0.064
18.184,0.142,-0.072
18.188,0.142,-0.08000001
18.192,0.138,-0.08800001
18.196,0.138,-0.096
18.2,0.142,-0.096
18.204,0.138,-0.104
18.208,0.134,-0.104
18.212,0.138,-0.112
18.216,0.134,-0.112
18.22,0.134,-0.12
18.224,0.134,-0.12
18.228,0.13,-0.128
18.232,0.126,-0.136
18.236,0.13,-0.144
18.24,0.126,-0.152
18.244,0.122,-0.152
18.248,0.122,-0.152
18.252,0.122,-0.16
18.256,0.122,-0.16
18.26,0.114,-0.176
18.264,0.114,-0.168
18.268,0.114,-0.176
18.272,0.11,-0.176
18.276,0.106,-0.176
18.28,0.106,-0.184
18.284,0.102,-0.184
18.288,0.098,-0.192
18.292,0.098,-0.2
18.296,0.094,-0.2
18.3,0.09,-0.2
18.304,0.09,-0.208
18.308,0.09,-0.208
18.312,0.082,-0.216
18.316,0.082,-0.216
18.32,0.078,-0.224
18.324,0.078,-0.224
18.328,0.07,-0.224
18.332,0.074,-0.224
18.336,0.07,-0.232
18.34,0.066,-0.232
18.344,0.066,-0.232
18.348,0.062,-0.232
18.352,0.062,-0.232
18.356,0.058,-0.24
18.36,0.054,-0.24
18.364,0.05,-0.232
18.368,0.05,-0.248
18.372,0.046,-0.248
18.376,0.046,-0.24
18.38,0.038,-0.24
18.384,0.038,-0.24
18.388,0.038,-0.248
18.392,0.034,-0.24
18.396,0.03,-0.248
18.4,0.026,-0.248
18.404,0.022,-0.24
18.408,0.022,-0.24
18.412,0.018,-0.24
18.416,0.018,-0.24
18.42,0.014,-0.24
18.424,0.01,-0.232
18.428,0.01,-0.24
18.432,0.006,-0.232
18.436,0.002,-0.232
18.44,0.002,-0.232
18.444,-0.002,-0.232
18.448,-0.002,-0.232
18.452,-0.006,-0.232
18.456,-0.01,-0.232
18.46,-0.01,-0.232
18.464,-0.01,-0.224
18.468,-0.014,-0.216
18.472,-0.014,-0.216
18.476,-0.018,-0.208
18.48,-0.022,-0.208
18.484,-0.022,-0.208
18.488,-0.022,-0.2
18.492,-0.026,-0.2
18.496,-0.026,-0.192
18.5,-0.026,-0.192
18.504,-0.034,-0.184
18.508,-0.034,-0.184
18.512,-0.034,-0.184
18.516,-0.034,-0.176
18.52,-0.038,-0.176
18.524,-0.042,-0.168
18.528,-0.042,-0.168
18.532,-0.042,-0.16
18.536,-0.046,-0.16
18.54,-0.046,-0.152
18.544,-0.046,-0.152
18.548,-0.05,-0.144
18.552,-0.05,-0.144
18.556,-0.05,-0.128
18.56,-0.05,-0.128
18.564,-0.05,-0.112
18.568,-0.05,-0.12
18.572,-0.054,-0.112
18.576,-0.05,-0.112
18.58,-0.054,-0.104
18.584,-0.054,-0.096
18.588,-0.054,-0.08800001
18.592,-0.058,-0.08800001
18.596,-0.058,-0.072
18.6,-0.058,-0.064
18.604,-0.054,-0.064
18.608,-0.058,-0.056
18.612,-0.058,-0.048
18.616,-0.058,-0.048
18.62,-0.058,-0.04
18.624,-0.058,-0.032
18.628,-0.054,-0.024
18.632,-0.054,-0.024
18.636,-0.054,-0.008
18.64,-0.058,0
18.644,-0.058,0
18.648,-0.058,0.008
18.652,-0.054,0.008
18.656,-0.054,0.024
18.66,-0.058,0.024
18.664,-0.054,0.032
18.668,-0.054,0.04
18.672,-0.054,0.04
18.676,-0.054,0.056
18.68,-0.054,0.048
18.684,-0.054,0.064
18.688,-0.05,0.072
18.692,-0.054,0.072
18.696,-0.05,0.072
18.7,-0.05,0.08800001
18.704,-0.05,0.096
18.708,-0.05,0.096
18.712,-0.05,0.096
18.716,-0.05,0.104
18.72,-0.046,0.112
18.724,-0.046,0.112
18.728,-0.046,0.128
18.732,-0.042,0.128
18.736,-0.046,0.136
18.74,-0.042,0.144
18.744,-0.042,0.144
18.748,-0.042,0.152
18.752,-0.042,0.152
18.756,-0.038,0.16
18.76,-0.042,0.168
18.764,-0.038,0.168
18.768,-0.038,0.176
18.772,-0.034,0.176
18.776,-0.03,0.184
18.78,-0.03,0.184
18.784,-0.03,0.184
18.788,-0.03,0.192
18.792,-0.03,0.2
18.796,-0.03,0.2
18.8,-0.03,0.208
18.804,-0.026,0.208
18.808,-0.022,0.208
18.812,-0.026,0.216
18.816,-0.022,0.216
18.82,-0.026,0.224
18.824,-0.022,0.224
18.828,-0.022,0.224
18.832,-0.018,0.224
18.836,-0.022,0.232
18.84,-0.018,0.232
18.844,-0.018,0.232
18.848,-0.018,0.232
18.852,-0.018,0.24
18.856,-0.014,0.248
18.86,-0.014,0.248
18.864,-0.014,0.24
18.868,-0.014,0.248
18.872,-0.014,0.248
18.876,-0.01,0.248
18.88,-0.014,0.24
18.884,-0.01,0.248
18.888,-0.01,0.248
18.892,-0.006,0.248
18.896,-0.01,0.256
18.9,-0.006,0.248
18.904,-0.01,0.248
18.908,-0.006,0.248
18.912,-0.006,0.256
18.916,-0.006,0.248
18.92,-0.006,0.248
18.924,-0.006,0.24
18.928,-0.006,0.248
18.932,-0.006,0.248
18.936,-0.006,0.248
18.94,-0.006,0.248
18.944,-0.006,0.24
18.948,-0.002,0.24
18.952,-0.002,0.24
18.956,-0.006,0.232
18.96,-0.002,0.232
18.964,-0.006,0.232
18.968,-0.002,0.224
18.972,-0.002,0.232
18.976,-0.006,0.224
18.98,-0.002,0.224
18.984,-0.002,0.216
18.988,-0.002,0.216
18.992,-0.002,0.216
18.996,-0.006,0.208
19,-0.002,0.208
19.004,-0.002,0.2
19.008,-0.006,0.2
19.012,-0.002,0.192
19.016,-0.002,0.192
19.02,-0.006,0.176
19.024,-0.006,0.184
19.028,-0.002,0.184
19.032,-0.006,0.168
19.036,-0.002,0.168
19.04,-0.006,0.152
19.044,-0.006,0.152
19.048,-0.006,0.152
19.052,-0.006,0.152
19.056,-0.006,0.136
19.06,-0.01,0.144
19.064,-0.01,0.136
19.068,-0.006,0.12
19.072,-0.006,0.12
19.076,-0.006,0.112
19.08,-0.01,0.112
19.084,-0.01,0.096
19.088,-0.01,0.104
19.092,-0.014,0.096
19.096,-0.014,0.08800001
19.1,-0.01,0.08800001
19.104,-0.01,0.08000001
19.108,-0.014,0.08000001
19.112,-0.014,0.072
19.116,-0.014,0.064
19.12,-0.014,0.056
19.124,-0.018,0.048
19.128,-0.014,0.048
19.132,-0.014,0.032
19.136,-0.018,0.032
19.14,-0.014,0.016
19.144,-0.018,0.016
19.148,-0.018,0.008
19.152,-0.014,0
19.156,-0.018,0
19.16,-0.018,-0.016
19.164,-0.018,-0.024
19.168,-0.018,-0.024
19.172,-0.018,-0.032
19.176,-0.018,-0.032
19.18,-0.022,-0.04
19.184,-0.018,-0.056
19.188,-0.018,-0.056
19.192,-0.018,-0.064
19.196,-0.018,-0.064
19.2,-0.018,-0.08000001
19.204,-0.018,-0.08000001
19.208,-0.018,-0.08000001
19.212,-0.018,-0.08800001
19.216,-0.018,-0.096
19.22,-0.018,-0.104
19.224,-0.022,-0.112
19.228,-0.018,-0.112
19.232,-0.022,-0.128
19.236,-0.018,-0.128
19.24,-0.022,-0.136
19.244,-0.018,-0.144
19.248,-0.018,-0.144
19.252,-0.018,-0.144
19.256,-0.018,-0.152
19.26,-0.014,-0.16
19.264,-0.014,-0.168
19.268,-0.014,-0.168
19.272,-0.014,-0.176
19.276,-0.018,-0.176
19.28,-0.01,-0.184
19.284,-0.014,-0.184
19.288,-0.01,-0.192
19.292,-0.01,-0.192
19.296,-0.014,-0.2
19.3,-0.01,-0.2
19.304,-0.01,-0.208
19.308,-0.01,-0.208
19.312,-0.01,-0.216
19.316,-0.006,-0.216
19.32,-0.006,-0.224
19.324,-0.006,-0.216
19.328,-0.006,-0.224
19.332,-0.006,-0.224
19.336,0.002,-0.232
19.34,-0.002,-0.232
19.344,0.002,-0.24
19.348,0.006,-0.24
19.352,0.006,-0.24
19.356,0.006,-0.24
19.36,0.006,-0.24
19.364,0.01,-0.248
19.368,0.01,-0.248
19.372,0.01,-0.248
19.376,0.01,-0.256
19.38,0.01,-0.256
19.384,0.014,-0.248
19.388,0.014,-0.256
19.392,0.018,-0.248
19.396,0.018,-0.256
19.4,0.022,-0.256
19.404,0.022,-0.248
19.408,0.026,-0.256
19.412,0.026,-0.256
19.416,0.026,-0.256
19.42,0.03,-0.256
19.424,0.03,-0.248
19.428,0.034,-0.256
19.432,0.034,-0.248
19.436,0.038,-0.256
19.44,0.038,-0.248
19.444,0.046,-0.248
19.448,0.046,-0.248
19.452,0.046,-0.24
19.456,0.046,-0.24
19.46,0.046,-0.24
19.464,0.05,-0.232
19.468,0.054,-0.232
19.472,0.054,-0.24
19.476,0.058,-0.232
19.48,0.058,-0.232
19.484,0.058,-0.224
19.488,0.062,-0.216
19.492,0.066,-0.216
19.496,0.066,-0.216
19.5,0.066,-0.208
19.504,0.066,-0.2
19.508,0.07,-0.2
19.512,0.07,-0.2
19.516,0.07,-0.2
19.52,0.07,-0.184
19.524,0.074,-0.184
19.528,0.074,-0.184
19.532,0.082,-0.184
19.536,0.082,-0.176
19.54,0.078,-0.176
19.544,0.082,-0.168
19.548,0.082,-0.16
19.552,0.086,-0.16
19.556,0.09,-0.16
19.56,0.09,-0.144
19.564,0.09,-0.136
19.568,0.09,-0.144
19.572,0.094,-0.136
19.576,0.094,-0.136
19.58,0.098,-0.12
19.584,0.098,-0.112
19.588,0.098,-0.112
19.592,0.098,-0.104
19.596,0.098,-0.104
19.6,0.106,-0.096
19.604,0.106,-0.08000001
19.608,0.102,-0.08000001
19.612,0.102,-0.08000001
19.616,0.106,-0.072
19.62,0.106,-0.064
19.624,0.106,-0.064
19.628,0.106,-0.056
19.632,0.106,-0.048
19.636,0.11,-0.04
19.64,0.11,-0.032
19.644,0.11,-0.024
19.648,0.11,-0.024
19.652,0.11,-0.016
19.656,0.11,-0.016
19.66,0.114,-0.008
19.664,0.11,0.008
19.668,0.11,0.008
19.672,0.114,0.016
19.676,0.11,0.016
19.68,0.106,0.024
19.684,0.106,0.032
19.688,0.106,0.032
19.692,0.11,0.04
19.696,0.106,0.048
19.7,0.106,0.056
19.704,0.106,0.056
19.708,0.106,0.064
19.712,0.106,0.072
19.716,0.102,0.072
19.72,0.102,0.08800001
19.724,0.102,0.08800001
19.728,0.098,0.096
19.732,0.098,0.096
19.736,0.098,0.096
19.74,0.098,0.104
19.744,0.094,0.112
19.748,0.094,0.112
19.752,0.09,0.112
19.756,0.09,0.12
19.76,0.086,0.128
19.764,0.086,0.136
19.768,0.082,0.136
19.772,0.082,0.136
19.776,0.082,0.144
19.78,0.078,0.152
19.784,0.078,0.152
19.788,0.074,0.152
19.792,0.07,0.16
19.796,0.07,0.168
19.8,0.07,0.168
19.804,0.066,0.176
19.808,0.066,0.176
19.812,0.062,0.176
19.816,0.054,0.184
19.82,0.058,0.184
19.824,0.054,0.184
19.828,0.05,0.192
19.832,0.046,0.192
19.836,0.046,0.192
19.84,0.038,0.192
19.844,0.038,0.2
19.848,0.038,0.2
19.852,0.03,0.2
19.856,0.03,0.2
19.86,0.026,0.208
19.864,0.022,0.208
19.868,0.014,0.216
19.872,0.014,0.208
19.876,0.01,0.216
19.88,0.01,0.208
19.884,0.006,0.216
19.888,0.002,0.208
19.892,-0.006,0.216
19.896,-0.006,0.216
19.9,-0.01,0.216
19.904,-0.014,0.216
19.908,-0.018,0.216
19.912,-0.022,0.216
19.916,-0.03,0.216
19.92,-0.03,0.208
19.924,-0.034,0.216
19.928,-0.034,0.216
19.932,-0.046,0.216
19.936,-0.042,0.216
19.94,-0.05,0.208
19.944,-0.05,0.216
19.948,-0.054,0.208
19.952,-0.058,0.208
19.956,-0.062,0.208
19.96,-0.066,0.2
19.964,-0.07,0.208
19.968,-0.074,0.208
19.972,-0.078,0.2
19.976,-0.082,0.2
19.98,-0.086,0.192
19.984,-0.09,0.192
19.988,-0.094,0.2
19.992,-0.098,0.184
19.996,-0.098,0.192
